#  E (eV)   dos(E)     Int dos(E) EFermi =    6.569 eV
  -9.000  0.0000E+00  0.0000E+00
  -8.990  0.0000E+00  0.0000E+00
  -8.980  0.0000E+00  0.0000E+00
  -8.970  0.0000E+00  0.0000E+00
  -8.960  0.0000E+00  0.0000E+00
  -8.950  0.0000E+00  0.0000E+00
  -8.940  0.0000E+00  0.0000E+00
  -8.930  0.0000E+00  0.0000E+00
  -8.920  0.0000E+00  0.0000E+00
  -8.910  0.0000E+00  0.0000E+00
  -8.900  0.0000E+00  0.0000E+00
  -8.890  0.0000E+00  0.0000E+00
  -8.880  0.0000E+00  0.0000E+00
  -8.870  0.0000E+00  0.0000E+00
  -8.860  0.0000E+00  0.0000E+00
  -8.850  0.0000E+00  0.0000E+00
  -8.840  0.0000E+00  0.0000E+00
  -8.830  0.0000E+00  0.0000E+00
  -8.820  0.0000E+00  0.0000E+00
  -8.810  0.0000E+00  0.0000E+00
  -8.800  0.0000E+00  0.0000E+00
  -8.790  0.0000E+00  0.0000E+00
  -8.780  0.0000E+00  0.0000E+00
  -8.770  0.0000E+00  0.0000E+00
  -8.760  0.0000E+00  0.0000E+00
  -8.750  0.0000E+00  0.0000E+00
  -8.740  0.0000E+00  0.0000E+00
  -8.730  0.0000E+00  0.0000E+00
  -8.720  0.0000E+00  0.0000E+00
  -8.710  0.0000E+00  0.0000E+00
  -8.700  0.0000E+00  0.0000E+00
  -8.690  0.0000E+00  0.0000E+00
  -8.680  0.0000E+00  0.0000E+00
  -8.670  0.0000E+00  0.0000E+00
  -8.660  0.0000E+00  0.0000E+00
  -8.650  0.0000E+00  0.0000E+00
  -8.640  0.0000E+00  0.0000E+00
  -8.630  0.0000E+00  0.0000E+00
  -8.620  0.0000E+00  0.0000E+00
  -8.610  0.0000E+00  0.0000E+00
  -8.600  0.0000E+00  0.0000E+00
  -8.590  0.0000E+00  0.0000E+00
  -8.580  0.0000E+00  0.0000E+00
  -8.570  0.0000E+00  0.0000E+00
  -8.560  0.0000E+00  0.0000E+00
  -8.550  0.0000E+00  0.0000E+00
  -8.540  0.0000E+00  0.0000E+00
  -8.530  0.0000E+00  0.0000E+00
  -8.520  0.0000E+00  0.0000E+00
  -8.510  0.0000E+00  0.0000E+00
  -8.500  0.0000E+00  0.0000E+00
  -8.490  0.0000E+00  0.0000E+00
  -8.480  0.0000E+00  0.0000E+00
  -8.470  0.0000E+00  0.0000E+00
  -8.460  0.0000E+00  0.0000E+00
  -8.450  0.0000E+00  0.0000E+00
  -8.440  0.0000E+00  0.0000E+00
  -8.430  0.0000E+00  0.0000E+00
  -8.420  0.0000E+00  0.0000E+00
  -8.410  0.0000E+00  0.0000E+00
  -8.400  0.0000E+00  0.0000E+00
  -8.390  0.0000E+00  0.0000E+00
  -8.380  0.0000E+00  0.0000E+00
  -8.370  0.0000E+00  0.0000E+00
  -8.360  0.0000E+00  0.0000E+00
  -8.350  0.0000E+00  0.0000E+00
  -8.340  0.0000E+00  0.0000E+00
  -8.330  0.0000E+00  0.0000E+00
  -8.320  0.0000E+00  0.0000E+00
  -8.310  0.0000E+00  0.0000E+00
  -8.300  0.0000E+00  0.0000E+00
  -8.290  0.0000E+00  0.0000E+00
  -8.280  0.0000E+00  0.0000E+00
  -8.270  0.0000E+00  0.0000E+00
  -8.260  0.0000E+00  0.0000E+00
  -8.250  0.0000E+00  0.0000E+00
  -8.240  0.0000E+00  0.0000E+00
  -8.230  0.0000E+00  0.0000E+00
  -8.220  0.0000E+00  0.0000E+00
  -8.210  0.0000E+00  0.0000E+00
  -8.200  0.0000E+00  0.0000E+00
  -8.190  0.0000E+00  0.0000E+00
  -8.180  0.0000E+00  0.0000E+00
  -8.170  0.0000E+00  0.0000E+00
  -8.160  0.0000E+00  0.0000E+00
  -8.150  0.0000E+00  0.0000E+00
  -8.140  0.0000E+00  0.0000E+00
  -8.130  0.0000E+00  0.0000E+00
  -8.120  0.0000E+00  0.0000E+00
  -8.110  0.0000E+00  0.0000E+00
  -8.100  0.0000E+00  0.0000E+00
  -8.090  0.0000E+00  0.0000E+00
  -8.080  0.0000E+00  0.0000E+00
  -8.070  0.0000E+00  0.0000E+00
  -8.060  0.0000E+00  0.0000E+00
  -8.050  0.0000E+00  0.0000E+00
  -8.040  0.0000E+00  0.0000E+00
  -8.030  0.0000E+00  0.0000E+00
  -8.020  0.0000E+00  0.0000E+00
  -8.010  0.0000E+00  0.0000E+00
  -8.000  0.0000E+00  0.0000E+00
  -7.990  0.0000E+00  0.0000E+00
  -7.980  0.0000E+00  0.0000E+00
  -7.970  0.0000E+00  0.0000E+00
  -7.960  0.0000E+00  0.0000E+00
  -7.950  0.0000E+00  0.0000E+00
  -7.940  0.0000E+00  0.0000E+00
  -7.930  0.0000E+00  0.0000E+00
  -7.920  0.0000E+00  0.0000E+00
  -7.910  0.0000E+00  0.0000E+00
  -7.900  0.0000E+00  0.0000E+00
  -7.890  0.0000E+00  0.0000E+00
  -7.880  0.0000E+00  0.0000E+00
  -7.870  0.0000E+00  0.0000E+00
  -7.860  0.0000E+00  0.0000E+00
  -7.850  0.0000E+00  0.0000E+00
  -7.840  0.0000E+00  0.0000E+00
  -7.830  0.0000E+00  0.0000E+00
  -7.820  0.0000E+00  0.0000E+00
  -7.810  0.0000E+00  0.0000E+00
  -7.800  0.0000E+00  0.0000E+00
  -7.790  0.0000E+00  0.0000E+00
  -7.780  0.0000E+00  0.0000E+00
  -7.770  0.0000E+00  0.0000E+00
  -7.760  0.0000E+00  0.0000E+00
  -7.750  0.0000E+00  0.0000E+00
  -7.740  0.0000E+00  0.0000E+00
  -7.730  0.0000E+00  0.0000E+00
  -7.720  0.0000E+00  0.0000E+00
  -7.710  0.0000E+00  0.0000E+00
  -7.700  0.0000E+00  0.0000E+00
  -7.690  0.0000E+00  0.0000E+00
  -7.680  0.0000E+00  0.0000E+00
  -7.670  0.0000E+00  0.0000E+00
  -7.660  0.0000E+00  0.0000E+00
  -7.650  0.0000E+00  0.0000E+00
  -7.640  0.0000E+00  0.0000E+00
  -7.630  0.0000E+00  0.0000E+00
  -7.620  0.0000E+00  0.0000E+00
  -7.610  0.0000E+00  0.0000E+00
  -7.600  0.0000E+00  0.0000E+00
  -7.590  0.0000E+00  0.0000E+00
  -7.580  0.0000E+00  0.0000E+00
  -7.570  0.0000E+00  0.0000E+00
  -7.560  0.0000E+00  0.0000E+00
  -7.550  0.0000E+00  0.0000E+00
  -7.540  0.0000E+00  0.0000E+00
  -7.530  0.0000E+00  0.0000E+00
  -7.520  0.0000E+00  0.0000E+00
  -7.510  0.0000E+00  0.0000E+00
  -7.500  0.0000E+00  0.0000E+00
  -7.490  0.0000E+00  0.0000E+00
  -7.480  0.0000E+00  0.0000E+00
  -7.470  0.0000E+00  0.0000E+00
  -7.460  0.0000E+00  0.0000E+00
  -7.450  0.0000E+00  0.0000E+00
  -7.440  0.0000E+00  0.0000E+00
  -7.430  0.0000E+00  0.0000E+00
  -7.420  0.0000E+00  0.0000E+00
  -7.410  0.0000E+00  0.0000E+00
  -7.400  0.0000E+00  0.0000E+00
  -7.390  0.0000E+00  0.0000E+00
  -7.380  0.0000E+00  0.0000E+00
  -7.370  0.0000E+00  0.0000E+00
  -7.360  0.0000E+00  0.0000E+00
  -7.350  0.0000E+00  0.0000E+00
  -7.340  0.0000E+00  0.0000E+00
  -7.330  0.0000E+00  0.0000E+00
  -7.320  0.0000E+00  0.0000E+00
  -7.310  0.0000E+00  0.0000E+00
  -7.300  0.0000E+00  0.0000E+00
  -7.290  0.0000E+00  0.0000E+00
  -7.280  0.0000E+00  0.0000E+00
  -7.270  0.0000E+00  0.0000E+00
  -7.260  0.0000E+00  0.0000E+00
  -7.250  0.0000E+00  0.0000E+00
  -7.240  0.0000E+00  0.0000E+00
  -7.230  0.0000E+00  0.0000E+00
  -7.220  0.0000E+00  0.0000E+00
  -7.210  0.0000E+00  0.0000E+00
  -7.200  0.0000E+00  0.0000E+00
  -7.190  0.0000E+00  0.0000E+00
  -7.180  0.0000E+00  0.0000E+00
  -7.170  0.0000E+00  0.0000E+00
  -7.160  0.0000E+00  0.0000E+00
  -7.150  0.0000E+00  0.0000E+00
  -7.140  0.0000E+00  0.0000E+00
  -7.130  0.0000E+00  0.0000E+00
  -7.120  0.0000E+00  0.0000E+00
  -7.110  0.0000E+00  0.0000E+00
  -7.100  0.0000E+00  0.0000E+00
  -7.090  0.0000E+00  0.0000E+00
  -7.080  0.0000E+00  0.0000E+00
  -7.070  0.0000E+00  0.0000E+00
  -7.060  0.0000E+00  0.0000E+00
  -7.050  0.0000E+00  0.0000E+00
  -7.040  0.0000E+00  0.0000E+00
  -7.030  0.0000E+00  0.0000E+00
  -7.020  0.0000E+00  0.0000E+00
  -7.010  0.0000E+00  0.0000E+00
  -7.000  0.0000E+00  0.0000E+00
  -6.990  0.0000E+00  0.0000E+00
  -6.980  0.0000E+00  0.0000E+00
  -6.970  0.0000E+00  0.0000E+00
  -6.960  0.0000E+00  0.0000E+00
  -6.950  0.0000E+00  0.0000E+00
  -6.940  0.0000E+00  0.0000E+00
  -6.930  0.0000E+00  0.0000E+00
  -6.920  0.0000E+00  0.0000E+00
  -6.910  0.0000E+00  0.0000E+00
  -6.900  0.0000E+00  0.0000E+00
  -6.890  0.0000E+00  0.0000E+00
  -6.880  0.0000E+00  0.0000E+00
  -6.870  0.0000E+00  0.0000E+00
  -6.860  0.0000E+00  0.0000E+00
  -6.850  0.0000E+00  0.0000E+00
  -6.840  0.0000E+00  0.0000E+00
  -6.830  0.0000E+00  0.0000E+00
  -6.820  0.0000E+00  0.0000E+00
  -6.810  0.0000E+00  0.0000E+00
  -6.800  0.0000E+00  0.0000E+00
  -6.790  0.0000E+00  0.0000E+00
  -6.780  0.0000E+00  0.0000E+00
  -6.770  0.0000E+00  0.0000E+00
  -6.760  0.0000E+00  0.0000E+00
  -6.750  0.0000E+00  0.0000E+00
  -6.740  0.0000E+00  0.0000E+00
  -6.730  0.0000E+00  0.0000E+00
  -6.720  0.0000E+00  0.0000E+00
  -6.710  0.0000E+00  0.0000E+00
  -6.700  0.0000E+00  0.0000E+00
  -6.690  0.0000E+00  0.0000E+00
  -6.680  0.0000E+00  0.0000E+00
  -6.670  0.0000E+00  0.0000E+00
  -6.660  0.0000E+00  0.0000E+00
  -6.650  0.0000E+00  0.0000E+00
  -6.640  0.0000E+00  0.0000E+00
  -6.630  0.0000E+00  0.0000E+00
  -6.620  0.0000E+00  0.0000E+00
  -6.610  0.0000E+00  0.0000E+00
  -6.600  0.0000E+00  0.0000E+00
  -6.590  0.0000E+00  0.0000E+00
  -6.580  0.0000E+00  0.0000E+00
  -6.570  0.0000E+00  0.0000E+00
  -6.560  0.0000E+00  0.0000E+00
  -6.550  0.0000E+00  0.0000E+00
  -6.540  0.0000E+00  0.0000E+00
  -6.530  0.0000E+00  0.0000E+00
  -6.520  0.0000E+00  0.0000E+00
  -6.510  0.0000E+00  0.0000E+00
  -6.500  0.0000E+00  0.0000E+00
  -6.490  0.0000E+00  0.0000E+00
  -6.480  0.0000E+00  0.0000E+00
  -6.470  0.0000E+00  0.0000E+00
  -6.460  0.0000E+00  0.0000E+00
  -6.450  0.0000E+00  0.0000E+00
  -6.440  0.0000E+00  0.0000E+00
  -6.430  0.0000E+00  0.0000E+00
  -6.420  0.0000E+00  0.0000E+00
  -6.410  0.0000E+00  0.0000E+00
  -6.400  0.0000E+00  0.0000E+00
  -6.390  0.0000E+00  0.0000E+00
  -6.380  0.0000E+00  0.0000E+00
  -6.370  0.0000E+00  0.0000E+00
  -6.360  0.0000E+00  0.0000E+00
  -6.350  0.0000E+00  0.0000E+00
  -6.340  0.0000E+00  0.0000E+00
  -6.330  0.0000E+00  0.0000E+00
  -6.320  0.0000E+00  0.0000E+00
  -6.310  0.0000E+00  0.0000E+00
  -6.300  0.0000E+00  0.0000E+00
  -6.290  0.0000E+00  0.0000E+00
  -6.280  0.0000E+00  0.0000E+00
  -6.270  0.0000E+00  0.0000E+00
  -6.260  0.0000E+00  0.0000E+00
  -6.250  0.0000E+00  0.0000E+00
  -6.240  0.0000E+00  0.0000E+00
  -6.230  0.0000E+00  0.0000E+00
  -6.220  0.0000E+00  0.0000E+00
  -6.210  0.0000E+00  0.0000E+00
  -6.200  0.0000E+00  0.0000E+00
  -6.190  0.0000E+00  0.0000E+00
  -6.180  0.0000E+00  0.0000E+00
  -6.170  0.0000E+00  0.0000E+00
  -6.160  0.0000E+00  0.0000E+00
  -6.150  0.0000E+00  0.0000E+00
  -6.140  0.0000E+00  0.0000E+00
  -6.130  0.0000E+00  0.0000E+00
  -6.120  0.0000E+00  0.0000E+00
  -6.110  0.0000E+00  0.0000E+00
  -6.100  0.0000E+00  0.0000E+00
  -6.090  0.0000E+00  0.0000E+00
  -6.080  0.0000E+00  0.0000E+00
  -6.070  0.0000E+00  0.0000E+00
  -6.060  0.0000E+00  0.0000E+00
  -6.050  0.0000E+00  0.0000E+00
  -6.040  0.0000E+00  0.0000E+00
  -6.030  0.0000E+00  0.0000E+00
  -6.020  0.0000E+00  0.0000E+00
  -6.010  0.0000E+00  0.0000E+00
  -6.000  0.0000E+00  0.0000E+00
  -5.990  0.0000E+00  0.0000E+00
  -5.980  0.0000E+00  0.0000E+00
  -5.970  0.0000E+00  0.0000E+00
  -5.960  0.0000E+00  0.0000E+00
  -5.950  0.0000E+00  0.0000E+00
  -5.940  0.0000E+00  0.0000E+00
  -5.930  0.0000E+00  0.0000E+00
  -5.920  0.0000E+00  0.0000E+00
  -5.910  0.0000E+00  0.0000E+00
  -5.900  0.0000E+00  0.0000E+00
  -5.890  0.0000E+00  0.0000E+00
  -5.880  0.0000E+00  0.0000E+00
  -5.870  0.0000E+00  0.0000E+00
  -5.860  0.0000E+00  0.0000E+00
  -5.850  0.0000E+00  0.0000E+00
  -5.840  0.0000E+00  0.0000E+00
  -5.830  0.0000E+00  0.0000E+00
  -5.820  0.0000E+00  0.0000E+00
  -5.810  0.0000E+00  0.0000E+00
  -5.800  0.0000E+00  0.0000E+00
  -5.790  0.0000E+00  0.0000E+00
  -5.780  0.0000E+00  0.0000E+00
  -5.770  0.0000E+00  0.0000E+00
  -5.760  0.0000E+00  0.0000E+00
  -5.750  0.0000E+00  0.0000E+00
  -5.740  0.0000E+00  0.0000E+00
  -5.730  0.0000E+00  0.0000E+00
  -5.720  0.0000E+00  0.0000E+00
  -5.710  0.0000E+00  0.0000E+00
  -5.700  0.0000E+00  0.0000E+00
  -5.690  0.0000E+00  0.0000E+00
  -5.680  0.0000E+00  0.0000E+00
  -5.670  0.0000E+00  0.0000E+00
  -5.660  0.0000E+00  0.0000E+00
  -5.650  0.9794E-05  0.2234E-08
  -5.640  0.2386E-02  0.8499E-05
  -5.630  0.8944E-02  0.6167E-04
  -5.620  0.1968E-01  0.2013E-03
  -5.610  0.3460E-01  0.4693E-03
  -5.600  0.5370E-01  0.9073E-03
  -5.590  0.5161E-01  0.1943E-02
  -5.580  0.5808E-01  0.2491E-02
  -5.570  0.6468E-01  0.3105E-02
  -5.560  0.7141E-01  0.3785E-02
  -5.550  0.7829E-01  0.4534E-02
  -5.540  0.8529E-01  0.5351E-02
  -5.530  0.9244E-01  0.6240E-02
  -5.520  0.1080E+00  0.7241E-02
  -5.510  0.1223E+00  0.8394E-02
  -5.500  0.1352E+00  0.9683E-02
  -5.490  0.1464E+00  0.1109E-01
  -5.480  0.1561E+00  0.1261E-01
  -5.470  0.1643E+00  0.1421E-01
  -5.460  0.1392E+00  0.1561E-01
  -5.450  0.1426E+00  0.1702E-01
  -5.440  0.1461E+00  0.1846E-01
  -5.430  0.1497E+00  0.1994E-01
  -5.420  0.1534E+00  0.2146E-01
  -5.410  0.1572E+00  0.2301E-01
  -5.400  0.1596E+00  0.2459E-01
  -5.390  0.1621E+00  0.2620E-01
  -5.380  0.1649E+00  0.2784E-01
  -5.370  0.1679E+00  0.2950E-01
  -5.360  0.1712E+00  0.3120E-01
  -5.350  0.1748E+00  0.3293E-01
  -5.340  0.1793E+00  0.3470E-01
  -5.330  0.1840E+00  0.3651E-01
  -5.320  0.1888E+00  0.3838E-01
  -5.310  0.1938E+00  0.4029E-01
  -5.300  0.1989E+00  0.4225E-01
  -5.290  0.2041E+00  0.4427E-01
  -5.280  0.2119E+00  0.4635E-01
  -5.270  0.2184E+00  0.4850E-01
  -5.260  0.2236E+00  0.5071E-01
  -5.250  0.2273E+00  0.5297E-01
  -5.240  0.2296E+00  0.5525E-01
  -5.230  0.2302E+00  0.5756E-01
  -5.220  0.2288E+00  0.5984E-01
  -5.210  0.2312E+00  0.6214E-01
  -5.200  0.2336E+00  0.6446E-01
  -5.190  0.2359E+00  0.6681E-01
  -5.180  0.2381E+00  0.6918E-01
  -5.170  0.2403E+00  0.7157E-01
  -5.160  0.2407E+00  0.7397E-01
  -5.150  0.2414E+00  0.7638E-01
  -5.140  0.2426E+00  0.7880E-01
  -5.130  0.2442E+00  0.8124E-01
  -5.120  0.2462E+00  0.8369E-01
  -5.110  0.2487E+00  0.8616E-01
  -5.100  0.2513E+00  0.8866E-01
  -5.090  0.2540E+00  0.9119E-01
  -5.080  0.2567E+00  0.9374E-01
  -5.070  0.2594E+00  0.9632E-01
  -5.060  0.2622E+00  0.9893E-01
  -5.050  0.2650E+00  0.1016E+00
  -5.040  0.2679E+00  0.1042E+00
  -5.030  0.2708E+00  0.1069E+00
  -5.020  0.2739E+00  0.1096E+00
  -5.010  0.2771E+00  0.1124E+00
  -5.000  0.2805E+00  0.1152E+00
  -4.990  0.2839E+00  0.1180E+00
  -4.980  0.2874E+00  0.1209E+00
  -4.970  0.2910E+00  0.1238E+00
  -4.960  0.2947E+00  0.1267E+00
  -4.950  0.2984E+00  0.1297E+00
  -4.940  0.3023E+00  0.1327E+00
  -4.930  0.3062E+00  0.1357E+00
  -4.920  0.3094E+00  0.1388E+00
  -4.910  0.3120E+00  0.1419E+00
  -4.900  0.3138E+00  0.1450E+00
  -4.890  0.3150E+00  0.1482E+00
  -4.880  0.3154E+00  0.1513E+00
  -4.870  0.3193E+00  0.1545E+00
  -4.860  0.3213E+00  0.1577E+00
  -4.850  0.3232E+00  0.1609E+00
  -4.840  0.3251E+00  0.1642E+00
  -4.830  0.3269E+00  0.1674E+00
  -4.820  0.3287E+00  0.1707E+00
  -4.810  0.3301E+00  0.1740E+00
  -4.800  0.3316E+00  0.1773E+00
  -4.790  0.3332E+00  0.1806E+00
  -4.780  0.3349E+00  0.1840E+00
  -4.770  0.3367E+00  0.1873E+00
  -4.760  0.3386E+00  0.1907E+00
  -4.750  0.3404E+00  0.1941E+00
  -4.740  0.3423E+00  0.1975E+00
  -4.730  0.3442E+00  0.2009E+00
  -4.720  0.3460E+00  0.2044E+00
  -4.710  0.3479E+00  0.2079E+00
  -4.700  0.3495E+00  0.2113E+00
  -4.690  0.3511E+00  0.2149E+00
  -4.680  0.3528E+00  0.2184E+00
  -4.670  0.3546E+00  0.2219E+00
  -4.660  0.3566E+00  0.2255E+00
  -4.650  0.3587E+00  0.2290E+00
  -4.640  0.3611E+00  0.2326E+00
  -4.630  0.3636E+00  0.2363E+00
  -4.620  0.3663E+00  0.2399E+00
  -4.610  0.3690E+00  0.2436E+00
  -4.600  0.3718E+00  0.2473E+00
  -4.590  0.3746E+00  0.2510E+00
  -4.580  0.3775E+00  0.2548E+00
  -4.570  0.3803E+00  0.2586E+00
  -4.560  0.3832E+00  0.2624E+00
  -4.550  0.3860E+00  0.2662E+00
  -4.540  0.3888E+00  0.2701E+00
  -4.530  0.3917E+00  0.2740E+00
  -4.520  0.3948E+00  0.2779E+00
  -4.510  0.3980E+00  0.2819E+00
  -4.500  0.4012E+00  0.2859E+00
  -4.490  0.4044E+00  0.2899E+00
  -4.480  0.4077E+00  0.2940E+00
  -4.470  0.4110E+00  0.2981E+00
  -4.460  0.4139E+00  0.3022E+00
  -4.450  0.4164E+00  0.3064E+00
  -4.440  0.4185E+00  0.3105E+00
  -4.430  0.4202E+00  0.3147E+00
  -4.420  0.4214E+00  0.3189E+00
  -4.410  0.4219E+00  0.3232E+00
  -4.400  0.4235E+00  0.3274E+00
  -4.390  0.4250E+00  0.3316E+00
  -4.380  0.4265E+00  0.3359E+00
  -4.370  0.4278E+00  0.3402E+00
  -4.360  0.4292E+00  0.3444E+00
  -4.350  0.4311E+00  0.3487E+00
  -4.340  0.4334E+00  0.3531E+00
  -4.330  0.4361E+00  0.3574E+00
  -4.320  0.4390E+00  0.3618E+00
  -4.310  0.4411E+00  0.3662E+00
  -4.300  0.4432E+00  0.3706E+00
  -4.290  0.4453E+00  0.3751E+00
  -4.280  0.4474E+00  0.3795E+00
  -4.270  0.4495E+00  0.3840E+00
  -4.260  0.4516E+00  0.3885E+00
  -4.250  0.4537E+00  0.3930E+00
  -4.240  0.4558E+00  0.3976E+00
  -4.230  0.4580E+00  0.4022E+00
  -4.220  0.4601E+00  0.4067E+00
  -4.210  0.4623E+00  0.4114E+00
  -4.200  0.4645E+00  0.4160E+00
  -4.190  0.4668E+00  0.4206E+00
  -4.180  0.4691E+00  0.4253E+00
  -4.170  0.4714E+00  0.4300E+00
  -4.160  0.4737E+00  0.4348E+00
  -4.150  0.4760E+00  0.4395E+00
  -4.140  0.4783E+00  0.4443E+00
  -4.130  0.4806E+00  0.4491E+00
  -4.120  0.4829E+00  0.4539E+00
  -4.110  0.4852E+00  0.4587E+00
  -4.100  0.4874E+00  0.4636E+00
  -4.090  0.4898E+00  0.4685E+00
  -4.080  0.4925E+00  0.4734E+00
  -4.070  0.4952E+00  0.4783E+00
  -4.060  0.4981E+00  0.4833E+00
  -4.050  0.5010E+00  0.4883E+00
  -4.040  0.5040E+00  0.4933E+00
  -4.030  0.5070E+00  0.4984E+00
  -4.020  0.5101E+00  0.5034E+00
  -4.010  0.5133E+00  0.5086E+00
  -4.000  0.5165E+00  0.5137E+00
  -3.990  0.5198E+00  0.5189E+00
  -3.980  0.5232E+00  0.5241E+00
  -3.970  0.5266E+00  0.5294E+00
  -3.960  0.5300E+00  0.5346E+00
  -3.950  0.5335E+00  0.5400E+00
  -3.940  0.5370E+00  0.5453E+00
  -3.930  0.5406E+00  0.5507E+00
  -3.920  0.5443E+00  0.5561E+00
  -3.910  0.5478E+00  0.5616E+00
  -3.900  0.5512E+00  0.5671E+00
  -3.890  0.5544E+00  0.5726E+00
  -3.880  0.5574E+00  0.5782E+00
  -3.870  0.5599E+00  0.5838E+00
  -3.860  0.5622E+00  0.5894E+00
  -3.850  0.5650E+00  0.5950E+00
  -3.840  0.5678E+00  0.6007E+00
  -3.830  0.5705E+00  0.6064E+00
  -3.820  0.5732E+00  0.6121E+00
  -3.810  0.5760E+00  0.6178E+00
  -3.800  0.5789E+00  0.6236E+00
  -3.790  0.5819E+00  0.6294E+00
  -3.780  0.5848E+00  0.6352E+00
  -3.770  0.5878E+00  0.6411E+00
  -3.760  0.5908E+00  0.6470E+00
  -3.750  0.5938E+00  0.6529E+00
  -3.740  0.5969E+00  0.6589E+00
  -3.730  0.6008E+00  0.6649E+00
  -3.720  0.6050E+00  0.6709E+00
  -3.710  0.6095E+00  0.6770E+00
  -3.700  0.6145E+00  0.6831E+00
  -3.690  0.6193E+00  0.6892E+00
  -3.680  0.6235E+00  0.6955E+00
  -3.670  0.6278E+00  0.7017E+00
  -3.660  0.6321E+00  0.7080E+00
  -3.650  0.6365E+00  0.7144E+00
  -3.640  0.6410E+00  0.7207E+00
  -3.630  0.6455E+00  0.7272E+00
  -3.620  0.6504E+00  0.7337E+00
  -3.610  0.6556E+00  0.7402E+00
  -3.600  0.6609E+00  0.7468E+00
  -3.590  0.6665E+00  0.7534E+00
  -3.580  0.6724E+00  0.7601E+00
  -3.570  0.6785E+00  0.7669E+00
  -3.560  0.6854E+00  0.7737E+00
  -3.550  0.6934E+00  0.7806E+00
  -3.540  0.7012E+00  0.7875E+00
  -3.530  0.7090E+00  0.7946E+00
  -3.520  0.7167E+00  0.8017E+00
  -3.510  0.7243E+00  0.8089E+00
  -3.500  0.7317E+00  0.8162E+00
  -3.490  0.7388E+00  0.8236E+00
  -3.480  0.7463E+00  0.8310E+00
  -3.470  0.7541E+00  0.8385E+00
  -3.460  0.7623E+00  0.8461E+00
  -3.450  0.7709E+00  0.8537E+00
  -3.440  0.7799E+00  0.8615E+00
  -3.430  0.7892E+00  0.8693E+00
  -3.420  0.7988E+00  0.8773E+00
  -3.410  0.8085E+00  0.8853E+00
  -3.400  0.8185E+00  0.8934E+00
  -3.390  0.8287E+00  0.9017E+00
  -3.380  0.8391E+00  0.9100E+00
  -3.370  0.8878E+00  0.9186E+00
  -3.360  0.8915E+00  0.9275E+00
  -3.350  0.8898E+00  0.9364E+00
  -3.340  0.8829E+00  0.9453E+00
  -3.330  0.8707E+00  0.9541E+00
  -3.320  0.8685E+00  0.9627E+00
  -3.310  0.8763E+00  0.9715E+00
  -3.300  0.8840E+00  0.9803E+00
  -3.290  0.8927E+00  0.9891E+00
  -3.280  0.9044E+00  0.9981E+00
  -3.270  0.9187E+00  0.1007E+01
  -3.260  0.9421E+00  0.1017E+01
  -3.250  0.9407E+00  0.1026E+01
  -3.240  0.9262E+00  0.1036E+01
  -3.230  0.9120E+00  0.1045E+01
  -3.220  0.8980E+00  0.1054E+01
  -3.210  0.8836E+00  0.1063E+01
  -3.200  0.8777E+00  0.1072E+01
  -3.190  0.8745E+00  0.1080E+01
  -3.180  0.8714E+00  0.1089E+01
  -3.170  0.8681E+00  0.1098E+01
  -3.160  0.8646E+00  0.1107E+01
  -3.150  0.8611E+00  0.1115E+01
  -3.140  0.8576E+00  0.1124E+01
  -3.130  0.8541E+00  0.1132E+01
  -3.120  0.8508E+00  0.1141E+01
  -3.110  0.8476E+00  0.1149E+01
  -3.100  0.8444E+00  0.1158E+01
  -3.090  0.8413E+00  0.1166E+01
  -3.080  0.8382E+00  0.1175E+01
  -3.070  0.8351E+00  0.1183E+01
  -3.060  0.8320E+00  0.1191E+01
  -3.050  0.8287E+00  0.1200E+01
  -3.040  0.8241E+00  0.1208E+01
  -3.030  0.8177E+00  0.1216E+01
  -3.020  0.8105E+00  0.1224E+01
  -3.010  0.8041E+00  0.1232E+01
  -3.000  0.7993E+00  0.1240E+01
  -2.990  0.7962E+00  0.1248E+01
  -2.980  0.7933E+00  0.1256E+01
  -2.970  0.7908E+00  0.1264E+01
  -2.960  0.7871E+00  0.1272E+01
  -2.950  0.7834E+00  0.1280E+01
  -2.940  0.7799E+00  0.1288E+01
  -2.930  0.7764E+00  0.1296E+01
  -2.920  0.7731E+00  0.1303E+01
  -2.910  0.7699E+00  0.1311E+01
  -2.900  0.7669E+00  0.1319E+01
  -2.890  0.7641E+00  0.1326E+01
  -2.880  0.7614E+00  0.1334E+01
  -2.870  0.7589E+00  0.1342E+01
  -2.860  0.7569E+00  0.1349E+01
  -2.850  0.7553E+00  0.1357E+01
  -2.840  0.7536E+00  0.1364E+01
  -2.830  0.7517E+00  0.1372E+01
  -2.820  0.7496E+00  0.1379E+01
  -2.810  0.7473E+00  0.1387E+01
  -2.800  0.7447E+00  0.1394E+01
  -2.790  0.7415E+00  0.1402E+01
  -2.780  0.7379E+00  0.1409E+01
  -2.770  0.7343E+00  0.1416E+01
  -2.760  0.7306E+00  0.1424E+01
  -2.750  0.7269E+00  0.1431E+01
  -2.740  0.7231E+00  0.1438E+01
  -2.730  0.7193E+00  0.1446E+01
  -2.720  0.7158E+00  0.1453E+01
  -2.710  0.7122E+00  0.1460E+01
  -2.700  0.7094E+00  0.1467E+01
  -2.690  0.7505E+00  0.1474E+01
  -2.680  0.7477E+00  0.1482E+01
  -2.670  0.7259E+00  0.1489E+01
  -2.660  0.7114E+00  0.1496E+01
  -2.650  0.7008E+00  0.1503E+01
  -2.640  0.6945E+00  0.1510E+01
  -2.630  0.6905E+00  0.1517E+01
  -2.620  0.6866E+00  0.1524E+01
  -2.610  0.6828E+00  0.1531E+01
  -2.600  0.6791E+00  0.1538E+01
  -2.590  0.6754E+00  0.1545E+01
  -2.580  0.6718E+00  0.1551E+01
  -2.570  0.6682E+00  0.1558E+01
  -2.560  0.6647E+00  0.1565E+01
  -2.550  0.6613E+00  0.1571E+01
  -2.540  0.6579E+00  0.1578E+01
  -2.530  0.6546E+00  0.1584E+01
  -2.520  0.6513E+00  0.1591E+01
  -2.510  0.6481E+00  0.1597E+01
  -2.500  0.6450E+00  0.1604E+01
  -2.490  0.6417E+00  0.1610E+01
  -2.480  0.6384E+00  0.1617E+01
  -2.470  0.6350E+00  0.1623E+01
  -2.460  0.6316E+00  0.1629E+01
  -2.450  0.6280E+00  0.1636E+01
  -2.440  0.6247E+00  0.1642E+01
  -2.430  0.6216E+00  0.1648E+01
  -2.420  0.6187E+00  0.1654E+01
  -2.410  0.6160E+00  0.1661E+01
  -2.400  0.6135E+00  0.1667E+01
  -2.390  0.6115E+00  0.1673E+01
  -2.380  0.6098E+00  0.1679E+01
  -2.370  0.6083E+00  0.1685E+01
  -2.360  0.6070E+00  0.1691E+01
  -2.350  0.6060E+00  0.1697E+01
  -2.340  0.6051E+00  0.1703E+01
  -2.330  0.6045E+00  0.1709E+01
  -2.320  0.6050E+00  0.1715E+01
  -2.310  0.6062E+00  0.1721E+01
  -2.300  0.6076E+00  0.1728E+01
  -2.290  0.6084E+00  0.1734E+01
  -2.280  0.6084E+00  0.1740E+01
  -2.270  0.6083E+00  0.1746E+01
  -2.260  0.6085E+00  0.1752E+01
  -2.250  0.6083E+00  0.1758E+01
  -2.240  0.6077E+00  0.1764E+01
  -2.230  0.6068E+00  0.1770E+01
  -2.220  0.6055E+00  0.1776E+01
  -2.210  0.6039E+00  0.1782E+01
  -2.200  0.6019E+00  0.1788E+01
  -2.190  0.5995E+00  0.1794E+01
  -2.180  0.5967E+00  0.1800E+01
  -2.170  0.5927E+00  0.1806E+01
  -2.160  0.5874E+00  0.1812E+01
  -2.150  0.5803E+00  0.1818E+01
  -2.140  0.5718E+00  0.1824E+01
  -2.130  0.5621E+00  0.1829E+01
  -2.120  0.5515E+00  0.1835E+01
  -2.110  0.5474E+00  0.1840E+01
  -2.100  0.5438E+00  0.1846E+01
  -2.090  0.5400E+00  0.1851E+01
  -2.080  0.5360E+00  0.1857E+01
  -2.070  0.5318E+00  0.1862E+01
  -2.060  0.5274E+00  0.1867E+01
  -2.050  0.5227E+00  0.1873E+01
  -2.040  0.5179E+00  0.1878E+01
  -2.030  0.5133E+00  0.1883E+01
  -2.020  0.5100E+00  0.1888E+01
  -2.010  0.5062E+00  0.1893E+01
  -2.000  0.5018E+00  0.1898E+01
  -1.990  0.4970E+00  0.1903E+01
  -1.980  0.4918E+00  0.1908E+01
  -1.970  0.4873E+00  0.1913E+01
  -1.960  0.4822E+00  0.1918E+01
  -1.950  0.4764E+00  0.1923E+01
  -1.940  0.4700E+00  0.1927E+01
  -1.930  0.4621E+00  0.1932E+01
  -1.920  0.4521E+00  0.1937E+01
  -1.910  0.4420E+00  0.1941E+01
  -1.900  0.4318E+00  0.1945E+01
  -1.890  0.4215E+00  0.1950E+01
  -1.880  0.4111E+00  0.1954E+01
  -1.870  0.4007E+00  0.1958E+01
  -1.860  0.3903E+00  0.1962E+01
  -1.850  0.3801E+00  0.1966E+01
  -1.840  0.3735E+00  0.1969E+01
  -1.830  0.4070E+00  0.1973E+01
  -1.820  0.4902E+00  0.1978E+01
  -1.810  0.3067E+00  0.1981E+01
  -1.800  0.2947E+00  0.1984E+01
  -1.790  0.2647E+00  0.1987E+01
  -1.780  0.2155E+00  0.1990E+01
  -1.770  0.1735E+00  0.1992E+01
  -1.760  0.1453E+00  0.1993E+01
  -1.750  0.1214E+00  0.1994E+01
  -1.740  0.1017E+00  0.1996E+01
  -1.730  0.8629E-01  0.1996E+01
  -1.720  0.7488E-01  0.1997E+01
  -1.710  0.6464E-01  0.1998E+01
  -1.700  0.5465E-01  0.1999E+01
  -1.690  0.4489E-01  0.1999E+01
  -1.680  0.3536E-01  0.1999E+01
  -1.670  0.2354E-01  0.2000E+01
  -1.660  0.9703E-02  0.2000E+01
  -1.650  0.1899E-02  0.2000E+01
  -1.640  0.0000E+00  0.2000E+01
  -1.630  0.0000E+00  0.2000E+01
  -1.620  0.0000E+00  0.2000E+01
  -1.610  0.0000E+00  0.2000E+01
  -1.600  0.0000E+00  0.2000E+01
  -1.590  0.0000E+00  0.2000E+01
  -1.580  0.0000E+00  0.2000E+01
  -1.570  0.0000E+00  0.2000E+01
  -1.560  0.0000E+00  0.2000E+01
  -1.550  0.0000E+00  0.2000E+01
  -1.540  0.0000E+00  0.2000E+01
  -1.530  0.0000E+00  0.2000E+01
  -1.520  0.0000E+00  0.2000E+01
  -1.510  0.0000E+00  0.2000E+01
  -1.500  0.0000E+00  0.2000E+01
  -1.490  0.0000E+00  0.2000E+01
  -1.480  0.0000E+00  0.2000E+01
  -1.470  0.0000E+00  0.2000E+01
  -1.460  0.0000E+00  0.2000E+01
  -1.450  0.0000E+00  0.2000E+01
  -1.440  0.0000E+00  0.2000E+01
  -1.430  0.0000E+00  0.2000E+01
  -1.420  0.0000E+00  0.2000E+01
  -1.410  0.0000E+00  0.2000E+01
  -1.400  0.0000E+00  0.2000E+01
  -1.390  0.0000E+00  0.2000E+01
  -1.380  0.0000E+00  0.2000E+01
  -1.370  0.0000E+00  0.2000E+01
  -1.360  0.0000E+00  0.2000E+01
  -1.350  0.0000E+00  0.2000E+01
  -1.340  0.0000E+00  0.2000E+01
  -1.330  0.0000E+00  0.2000E+01
  -1.320  0.0000E+00  0.2000E+01
  -1.310  0.0000E+00  0.2000E+01
  -1.300  0.0000E+00  0.2000E+01
  -1.290  0.0000E+00  0.2000E+01
  -1.280  0.0000E+00  0.2000E+01
  -1.270  0.0000E+00  0.2000E+01
  -1.260  0.0000E+00  0.2000E+01
  -1.250  0.0000E+00  0.2000E+01
  -1.240  0.0000E+00  0.2000E+01
  -1.230  0.0000E+00  0.2000E+01
  -1.220  0.0000E+00  0.2000E+01
  -1.210  0.0000E+00  0.2000E+01
  -1.200  0.6898E-02  0.2000E+01
  -1.190  0.1691E+00  0.2001E+01
  -1.180  0.7447E-01  0.2001E+01
  -1.170  0.1062E+00  0.2002E+01
  -1.160  0.1516E+00  0.2004E+01
  -1.150  0.1615E+00  0.2005E+01
  -1.140  0.1608E+00  0.2007E+01
  -1.130  0.1585E+00  0.2008E+01
  -1.120  0.1702E+00  0.2010E+01
  -1.110  0.2021E+00  0.2012E+01
  -1.100  0.2228E+00  0.2014E+01
  -1.090  0.2408E+00  0.2016E+01
  -1.080  0.2593E+00  0.2019E+01
  -1.070  0.2785E+00  0.2022E+01
  -1.060  0.2982E+00  0.2024E+01
  -1.050  0.3185E+00  0.2028E+01
  -1.040  0.3265E+00  0.2031E+01
  -1.030  0.3355E+00  0.2034E+01
  -1.020  0.3462E+00  0.2037E+01
  -1.010  0.3570E+00  0.2041E+01
  -1.000  0.3679E+00  0.2045E+01
  -0.990  0.3788E+00  0.2048E+01
  -0.980  0.3899E+00  0.2052E+01
  -0.970  0.4010E+00  0.2056E+01
  -0.960  0.4122E+00  0.2060E+01
  -0.950  0.4235E+00  0.2064E+01
  -0.940  0.4348E+00  0.2069E+01
  -0.930  0.4460E+00  0.2073E+01
  -0.920  0.4572E+00  0.2078E+01
  -0.910  0.4683E+00  0.2082E+01
  -0.900  0.4796E+00  0.2087E+01
  -0.890  0.4918E+00  0.2092E+01
  -0.880  0.5039E+00  0.2097E+01
  -0.870  0.5161E+00  0.2102E+01
  -0.860  0.5282E+00  0.2107E+01
  -0.850  0.5402E+00  0.2112E+01
  -0.840  0.5489E+00  0.2118E+01
  -0.830  0.5572E+00  0.2123E+01
  -0.820  0.5649E+00  0.2129E+01
  -0.810  0.5721E+00  0.2135E+01
  -0.800  0.5789E+00  0.2141E+01
  -0.790  0.5851E+00  0.2146E+01
  -0.780  0.5908E+00  0.2152E+01
  -0.770  0.5959E+00  0.2158E+01
  -0.760  0.6006E+00  0.2164E+01
  -0.750  0.6048E+00  0.2170E+01
  -0.740  0.6156E+00  0.2176E+01
  -0.730  0.6386E+00  0.2183E+01
  -0.720  0.6552E+00  0.2189E+01
  -0.710  0.6669E+00  0.2196E+01
  -0.700  0.6775E+00  0.2202E+01
  -0.690  0.6873E+00  0.2209E+01
  -0.680  0.6963E+00  0.2216E+01
  -0.670  0.7055E+00  0.2223E+01
  -0.660  0.7158E+00  0.2230E+01
  -0.650  0.7275E+00  0.2237E+01
  -0.640  0.7913E+00  0.2246E+01
  -0.630  0.8164E+00  0.2254E+01
  -0.620  0.8426E+00  0.2262E+01
  -0.610  0.8700E+00  0.2270E+01
  -0.600  0.9063E+00  0.2279E+01
  -0.590  0.9461E+00  0.2289E+01
  -0.580  0.9886E+00  0.2298E+01
  -0.570  0.1034E+01  0.2308E+01
  -0.560  0.1088E+01  0.2319E+01
  -0.550  0.1157E+01  0.2330E+01
  -0.540  0.1234E+01  0.2342E+01
  -0.530  0.1289E+01  0.2355E+01
  -0.520  0.1360E+01  0.2368E+01
  -0.510  0.1421E+01  0.2382E+01
  -0.500  0.1468E+01  0.2396E+01
  -0.490  0.1479E+01  0.2411E+01
  -0.480  0.1479E+01  0.2426E+01
  -0.470  0.1472E+01  0.2441E+01
  -0.460  0.1468E+01  0.2455E+01
  -0.450  0.1468E+01  0.2470E+01
  -0.440  0.1471E+01  0.2485E+01
  -0.430  0.1474E+01  0.2499E+01
  -0.420  0.1477E+01  0.2514E+01
  -0.410  0.1475E+01  0.2529E+01
  -0.400  0.1467E+01  0.2544E+01
  -0.390  0.1455E+01  0.2558E+01
  -0.380  0.1438E+01  0.2573E+01
  -0.370  0.1414E+01  0.2587E+01
  -0.360  0.1386E+01  0.2601E+01
  -0.350  0.1357E+01  0.2615E+01
  -0.340  0.1326E+01  0.2628E+01
  -0.330  0.1295E+01  0.2641E+01
  -0.320  0.1262E+01  0.2654E+01
  -0.310  0.1229E+01  0.2667E+01
  -0.300  0.1195E+01  0.2679E+01
  -0.290  0.1159E+01  0.2690E+01
  -0.280  0.1128E+01  0.2702E+01
  -0.270  0.1096E+01  0.2713E+01
  -0.260  0.1066E+01  0.2724E+01
  -0.250  0.1037E+01  0.2734E+01
  -0.240  0.1008E+01  0.2745E+01
  -0.230  0.9804E+00  0.2754E+01
  -0.220  0.9576E+00  0.2764E+01
  -0.210  0.9375E+00  0.2774E+01
  -0.200  0.9200E+00  0.2783E+01
  -0.190  0.9047E+00  0.2792E+01
  -0.180  0.8904E+00  0.2801E+01
  -0.170  0.8769E+00  0.2810E+01
  -0.160  0.8638E+00  0.2819E+01
  -0.150  0.8512E+00  0.2827E+01
  -0.140  0.8390E+00  0.2836E+01
  -0.130  0.8273E+00  0.2844E+01
  -0.120  0.8158E+00  0.2852E+01
  -0.110  0.8047E+00  0.2860E+01
  -0.100  0.7939E+00  0.2868E+01
  -0.090  0.7833E+00  0.2876E+01
  -0.080  0.7731E+00  0.2884E+01
  -0.070  0.7632E+00  0.2892E+01
  -0.060  0.7535E+00  0.2899E+01
  -0.050  0.7442E+00  0.2907E+01
  -0.040  0.7351E+00  0.2914E+01
  -0.030  0.7264E+00  0.2921E+01
  -0.020  0.7180E+00  0.2929E+01
  -0.010  0.7098E+00  0.2936E+01
  -0.000  0.7020E+00  0.2943E+01
   0.010  0.6945E+00  0.2950E+01
   0.020  0.6872E+00  0.2957E+01
   0.030  0.6802E+00  0.2963E+01
   0.040  0.6735E+00  0.2970E+01
   0.050  0.6670E+00  0.2977E+01
   0.060  0.6609E+00  0.2984E+01
   0.070  0.6552E+00  0.2990E+01
   0.080  0.6497E+00  0.2997E+01
   0.090  0.6444E+00  0.3003E+01
   0.100  0.6391E+00  0.3010E+01
   0.110  0.6339E+00  0.3016E+01
   0.120  0.6287E+00  0.3022E+01
   0.130  0.6237E+00  0.3029E+01
   0.140  0.6187E+00  0.3035E+01
   0.150  0.6138E+00  0.3041E+01
   0.160  0.6090E+00  0.3047E+01
   0.170  0.6043E+00  0.3053E+01
   0.180  0.5996E+00  0.3059E+01
   0.190  0.5951E+00  0.3065E+01
   0.200  0.5906E+00  0.3071E+01
   0.210  0.5863E+00  0.3077E+01
   0.220  0.5820E+00  0.3083E+01
   0.230  0.5778E+00  0.3089E+01
   0.240  0.5737E+00  0.3094E+01
   0.250  0.5697E+00  0.3100E+01
   0.260  0.5657E+00  0.3106E+01
   0.270  0.5618E+00  0.3111E+01
   0.280  0.5579E+00  0.3117E+01
   0.290  0.5541E+00  0.3122E+01
   0.300  0.5503E+00  0.3128E+01
   0.310  0.5465E+00  0.3133E+01
   0.320  0.5428E+00  0.3139E+01
   0.330  0.5391E+00  0.3144E+01
   0.340  0.5354E+00  0.3150E+01
   0.350  0.5317E+00  0.3155E+01
   0.360  0.5281E+00  0.3160E+01
   0.370  0.5240E+00  0.3166E+01
   0.380  0.5193E+00  0.3171E+01
   0.390  0.5140E+00  0.3176E+01
   0.400  0.5091E+00  0.3181E+01
   0.410  0.5049E+00  0.3186E+01
   0.420  0.5009E+00  0.3191E+01
   0.430  0.4970E+00  0.3196E+01
   0.440  0.4931E+00  0.3201E+01
   0.450  0.4893E+00  0.3206E+01
   0.460  0.4855E+00  0.3211E+01
   0.470  0.4818E+00  0.3216E+01
   0.480  0.4782E+00  0.3221E+01
   0.490  0.4747E+00  0.3225E+01
   0.500  0.4712E+00  0.3230E+01
   0.510  0.4678E+00  0.3235E+01
   0.520  0.4644E+00  0.3239E+01
   0.530  0.4611E+00  0.3244E+01
   0.540  0.4578E+00  0.3249E+01
   0.550  0.4545E+00  0.3253E+01
   0.560  0.4513E+00  0.3258E+01
   0.570  0.4482E+00  0.3262E+01
   0.580  0.4451E+00  0.3267E+01
   0.590  0.4421E+00  0.3271E+01
   0.600  0.4390E+00  0.3276E+01
   0.610  0.4361E+00  0.3280E+01
   0.620  0.4332E+00  0.3284E+01
   0.630  0.4303E+00  0.3289E+01
   0.640  0.4275E+00  0.3293E+01
   0.650  0.4247E+00  0.3297E+01
   0.660  0.4220E+00  0.3301E+01
   0.670  0.4193E+00  0.3306E+01
   0.680  0.4166E+00  0.3310E+01
   0.690  0.4140E+00  0.3314E+01
   0.700  0.4114E+00  0.3318E+01
   0.710  0.4089E+00  0.3322E+01
   0.720  0.4066E+00  0.3326E+01
   0.730  0.4043E+00  0.3330E+01
   0.740  0.4021E+00  0.3334E+01
   0.750  0.4000E+00  0.3338E+01
   0.760  0.3979E+00  0.3342E+01
   0.770  0.3959E+00  0.3346E+01
   0.780  0.3940E+00  0.3350E+01
   0.790  0.3920E+00  0.3354E+01
   0.800  0.3901E+00  0.3358E+01
   0.810  0.3881E+00  0.3362E+01
   0.820  0.3862E+00  0.3366E+01
   0.830  0.3843E+00  0.3370E+01
   0.840  0.3824E+00  0.3373E+01
   0.850  0.3805E+00  0.3377E+01
   0.860  0.3786E+00  0.3381E+01
   0.870  0.3768E+00  0.3385E+01
   0.880  0.3749E+00  0.3389E+01
   0.890  0.3731E+00  0.3392E+01
   0.900  0.3713E+00  0.3396E+01
   0.910  0.3696E+00  0.3400E+01
   0.920  0.3678E+00  0.3403E+01
   0.930  0.3661E+00  0.3407E+01
   0.940  0.3643E+00  0.3411E+01
   0.950  0.3626E+00  0.3414E+01
   0.960  0.3609E+00  0.3418E+01
   0.970  0.3592E+00  0.3422E+01
   0.980  0.3576E+00  0.3425E+01
   0.990  0.3559E+00  0.3429E+01
   1.000  0.3543E+00  0.3432E+01
   1.010  0.3526E+00  0.3436E+01
   1.020  0.3509E+00  0.3439E+01
   1.030  0.3492E+00  0.3443E+01
   1.040  0.3475E+00  0.3446E+01
   1.050  0.3458E+00  0.3450E+01
   1.060  0.3440E+00  0.3453E+01
   1.070  0.3422E+00  0.3457E+01
   1.080  0.3404E+00  0.3460E+01
   1.090  0.3386E+00  0.3464E+01
   1.100  0.3368E+00  0.3467E+01
   1.110  0.3349E+00  0.3470E+01
   1.120  0.3336E+00  0.3474E+01
   1.130  0.3316E+00  0.3477E+01
   1.140  0.3289E+00  0.3480E+01
   1.150  0.3261E+00  0.3484E+01
   1.160  0.3235E+00  0.3487E+01
   1.170  0.3211E+00  0.3490E+01
   1.180  0.3188E+00  0.3493E+01
   1.190  0.3166E+00  0.3496E+01
   1.200  0.3145E+00  0.3500E+01
   1.210  0.3122E+00  0.3503E+01
   1.220  0.3100E+00  0.3506E+01
   1.230  0.3079E+00  0.3509E+01
   1.240  0.3057E+00  0.3512E+01
   1.250  0.3036E+00  0.3515E+01
   1.260  0.3016E+00  0.3518E+01
   1.270  0.2996E+00  0.3521E+01
   1.280  0.2976E+00  0.3524E+01
   1.290  0.2957E+00  0.3527E+01
   1.300  0.2938E+00  0.3530E+01
   1.310  0.2920E+00  0.3533E+01
   1.320  0.2902E+00  0.3536E+01
   1.330  0.2884E+00  0.3539E+01
   1.340  0.2867E+00  0.3542E+01
   1.350  0.2850E+00  0.3544E+01
   1.360  0.2833E+00  0.3547E+01
   1.370  0.2817E+00  0.3550E+01
   1.380  0.2801E+00  0.3553E+01
   1.390  0.2785E+00  0.3556E+01
   1.400  0.2769E+00  0.3558E+01
   1.410  0.2753E+00  0.3561E+01
   1.420  0.2738E+00  0.3564E+01
   1.430  0.2722E+00  0.3567E+01
   1.440  0.2708E+00  0.3569E+01
   1.450  0.2693E+00  0.3572E+01
   1.460  0.2678E+00  0.3575E+01
   1.470  0.2664E+00  0.3577E+01
   1.480  0.2650E+00  0.3580E+01
   1.490  0.2636E+00  0.3583E+01
   1.500  0.2622E+00  0.3585E+01
   1.510  0.2608E+00  0.3588E+01
   1.520  0.2595E+00  0.3591E+01
   1.530  0.2581E+00  0.3593E+01
   1.540  0.2568E+00  0.3596E+01
   1.550  0.2555E+00  0.3598E+01
   1.560  0.2542E+00  0.3601E+01
   1.570  0.2530E+00  0.3603E+01
   1.580  0.2518E+00  0.3606E+01
   1.590  0.2506E+00  0.3608E+01
   1.600  0.2494E+00  0.3611E+01
   1.610  0.2482E+00  0.3613E+01
   1.620  0.2470E+00  0.3616E+01
   1.630  0.2459E+00  0.3618E+01
   1.640  0.2447E+00  0.3621E+01
   1.650  0.2436E+00  0.3623E+01
   1.660  0.2424E+00  0.3626E+01
   1.670  0.2413E+00  0.3628E+01
   1.680  0.2402E+00  0.3630E+01
   1.690  0.2391E+00  0.3633E+01
   1.700  0.2380E+00  0.3635E+01
   1.710  0.2369E+00  0.3638E+01
   1.720  0.2359E+00  0.3640E+01
   1.730  0.2348E+00  0.3642E+01
   1.740  0.2338E+00  0.3645E+01
   1.750  0.2327E+00  0.3647E+01
   1.760  0.2317E+00  0.3649E+01
   1.770  0.2307E+00  0.3652E+01
   1.780  0.2297E+00  0.3654E+01
   1.790  0.2288E+00  0.3656E+01
   1.800  0.2278E+00  0.3659E+01
   1.810  0.2268E+00  0.3661E+01
   1.820  0.2259E+00  0.3663E+01
   1.830  0.2250E+00  0.3665E+01
   1.840  0.2241E+00  0.3668E+01
   1.850  0.2232E+00  0.3670E+01
   1.860  0.2224E+00  0.3672E+01
   1.870  0.2219E+00  0.3674E+01
   1.880  0.2245E+00  0.3677E+01
   1.890  0.2326E+00  0.3679E+01
   1.900  0.2466E+00  0.3681E+01
   1.910  0.2664E+00  0.3684E+01
   1.920  0.2864E+00  0.3687E+01
   1.930  0.3101E+00  0.3689E+01
   1.940  0.3432E+00  0.3693E+01
   1.950  0.3819E+00  0.3696E+01
   1.960  0.4191E+00  0.3700E+01
   1.970  0.4546E+00  0.3705E+01
   1.980  0.4875E+00  0.3709E+01
   1.990  0.5199E+00  0.3714E+01
   2.000  0.5591E+00  0.3720E+01
   2.010  0.5981E+00  0.3726E+01
   2.020  0.6373E+00  0.3732E+01
   2.030  0.6767E+00  0.3738E+01
   2.040  0.7163E+00  0.3745E+01
   2.050  0.7562E+00  0.3753E+01
   2.060  0.8182E+00  0.3761E+01
   2.070  0.8785E+00  0.3769E+01
   2.080  0.9352E+00  0.3778E+01
   2.090  0.9881E+00  0.3788E+01
   2.100  0.1037E+01  0.3798E+01
   2.110  0.1091E+01  0.3809E+01
   2.120  0.1135E+01  0.3820E+01
   2.130  0.1170E+01  0.3831E+01
   2.140  0.1213E+01  0.3843E+01
   2.150  0.1273E+01  0.3856E+01
   2.160  0.1310E+01  0.3869E+01
   2.170  0.1333E+01  0.3882E+01
   2.180  0.1347E+01  0.3895E+01
   2.190  0.1350E+01  0.3909E+01
   2.200  0.1353E+01  0.3922E+01
   2.210  0.1352E+01  0.3936E+01
   2.220  0.1347E+01  0.3949E+01
   2.230  0.1338E+01  0.3963E+01
   2.240  0.1327E+01  0.3976E+01
   2.250  0.1315E+01  0.3989E+01
   2.260  0.1301E+01  0.4002E+01
   2.270  0.1284E+01  0.4015E+01
   2.280  0.1265E+01  0.4028E+01
   2.290  0.1246E+01  0.4040E+01
   2.300  0.1226E+01  0.4053E+01
   2.310  0.1201E+01  0.4065E+01
   2.320  0.1177E+01  0.4077E+01
   2.330  0.1162E+01  0.4089E+01
   2.340  0.1148E+01  0.4100E+01
   2.350  0.1142E+01  0.4112E+01
   2.360  0.1136E+01  0.4123E+01
   2.370  0.1130E+01  0.4134E+01
   2.380  0.1123E+01  0.4146E+01
   2.390  0.1118E+01  0.4157E+01
   2.400  0.1111E+01  0.4168E+01
   2.410  0.1105E+01  0.4179E+01
   2.420  0.1099E+01  0.4190E+01
   2.430  0.1092E+01  0.4201E+01
   2.440  0.1086E+01  0.4212E+01
   2.450  0.1079E+01  0.4223E+01
   2.460  0.1071E+01  0.4233E+01
   2.470  0.1067E+01  0.4244E+01
   2.480  0.1066E+01  0.4255E+01
   2.490  0.1065E+01  0.4265E+01
   2.500  0.1063E+01  0.4276E+01
   2.510  0.1060E+01  0.4287E+01
   2.520  0.1057E+01  0.4297E+01
   2.530  0.1053E+01  0.4308E+01
   2.540  0.1049E+01  0.4318E+01
   2.550  0.1045E+01  0.4329E+01
   2.560  0.1040E+01  0.4339E+01
   2.570  0.1035E+01  0.4350E+01
   2.580  0.1030E+01  0.4360E+01
   2.590  0.1025E+01  0.4370E+01
   2.600  0.1020E+01  0.4380E+01
   2.610  0.1014E+01  0.4391E+01
   2.620  0.1008E+01  0.4401E+01
   2.630  0.1002E+01  0.4411E+01
   2.640  0.9982E+00  0.4421E+01
   2.650  0.9970E+00  0.4431E+01
   2.660  0.9962E+00  0.4441E+01
   2.670  0.9961E+00  0.4451E+01
   2.680  0.9967E+00  0.4461E+01
   2.690  0.9981E+00  0.4471E+01
   2.700  0.1000E+01  0.4481E+01
   2.710  0.1004E+01  0.4491E+01
   2.720  0.1008E+01  0.4501E+01
   2.730  0.1013E+01  0.4511E+01
   2.740  0.1017E+01  0.4521E+01
   2.750  0.1021E+01  0.4531E+01
   2.760  0.1024E+01  0.4541E+01
   2.770  0.1028E+01  0.4552E+01
   2.780  0.1033E+01  0.4562E+01
   2.790  0.1037E+01  0.4572E+01
   2.800  0.1042E+01  0.4583E+01
   2.810  0.1046E+01  0.4593E+01
   2.820  0.1051E+01  0.4604E+01
   2.830  0.1056E+01  0.4614E+01
   2.840  0.1062E+01  0.4625E+01
   2.850  0.1067E+01  0.4635E+01
   2.860  0.1071E+01  0.4646E+01
   2.870  0.1074E+01  0.4657E+01
   2.880  0.1077E+01  0.4667E+01
   2.890  0.1080E+01  0.4678E+01
   2.900  0.1084E+01  0.4689E+01
   2.910  0.1087E+01  0.4700E+01
   2.920  0.1091E+01  0.4711E+01
   2.930  0.1095E+01  0.4722E+01
   2.940  0.1097E+01  0.4733E+01
   2.950  0.1100E+01  0.4744E+01
   2.960  0.1105E+01  0.4755E+01
   2.970  0.1110E+01  0.4766E+01
   2.980  0.1115E+01  0.4777E+01
   2.990  0.1119E+01  0.4788E+01
   3.000  0.1124E+01  0.4799E+01
   3.010  0.1128E+01  0.4811E+01
   3.020  0.1135E+01  0.4822E+01
   3.030  0.1142E+01  0.4833E+01
   3.040  0.1149E+01  0.4845E+01
   3.050  0.1172E+01  0.4856E+01
   3.060  0.1177E+01  0.4868E+01
   3.070  0.1181E+01  0.4880E+01
   3.080  0.1186E+01  0.4892E+01
   3.090  0.1192E+01  0.4904E+01
   3.100  0.1199E+01  0.4915E+01
   3.110  0.1206E+01  0.4927E+01
   3.120  0.1212E+01  0.4940E+01
   3.130  0.1218E+01  0.4952E+01
   3.140  0.1224E+01  0.4964E+01
   3.150  0.1230E+01  0.4976E+01
   3.160  0.1234E+01  0.4989E+01
   3.170  0.1236E+01  0.5001E+01
   3.180  0.1239E+01  0.5013E+01
   3.190  0.1243E+01  0.5026E+01
   3.200  0.1249E+01  0.5038E+01
   3.210  0.1256E+01  0.5051E+01
   3.220  0.1262E+01  0.5063E+01
   3.230  0.1268E+01  0.5076E+01
   3.240  0.1272E+01  0.5089E+01
   3.250  0.1276E+01  0.5101E+01
   3.260  0.1284E+01  0.5114E+01
   3.270  0.1297E+01  0.5127E+01
   3.280  0.1313E+01  0.5140E+01
   3.290  0.1329E+01  0.5153E+01
   3.300  0.1343E+01  0.5167E+01
   3.310  0.1356E+01  0.5180E+01
   3.320  0.1368E+01  0.5194E+01
   3.330  0.1378E+01  0.5208E+01
   3.340  0.1447E+01  0.5221E+01
   3.350  0.1454E+01  0.5236E+01
   3.360  0.1467E+01  0.5250E+01
   3.370  0.1481E+01  0.5265E+01
   3.380  0.1497E+01  0.5280E+01
   3.390  0.1514E+01  0.5295E+01
   3.400  0.1532E+01  0.5310E+01
   3.410  0.1578E+01  0.5326E+01
   3.420  0.1626E+01  0.5342E+01
   3.430  0.1669E+01  0.5358E+01
   3.440  0.1679E+01  0.5375E+01
   3.450  0.1678E+01  0.5392E+01
   3.460  0.1669E+01  0.5409E+01
   3.470  0.1661E+01  0.5425E+01
   3.480  0.1650E+01  0.5442E+01
   3.490  0.1638E+01  0.5458E+01
   3.500  0.1628E+01  0.5475E+01
   3.510  0.1617E+01  0.5491E+01
   3.520  0.1603E+01  0.5507E+01
   3.530  0.1584E+01  0.5523E+01
   3.540  0.1571E+01  0.5539E+01
   3.550  0.1563E+01  0.5554E+01
   3.560  0.1559E+01  0.5570E+01
   3.570  0.1556E+01  0.5586E+01
   3.580  0.1555E+01  0.5601E+01
   3.590  0.1559E+01  0.5617E+01
   3.600  0.1567E+01  0.5632E+01
   3.610  0.1579E+01  0.5648E+01
   3.620  0.1570E+01  0.5664E+01
   3.630  0.1563E+01  0.5679E+01
   3.640  0.1556E+01  0.5695E+01
   3.650  0.1533E+01  0.5711E+01
   3.660  0.1491E+01  0.5726E+01
   3.670  0.1484E+01  0.5741E+01
   3.680  0.1475E+01  0.5755E+01
   3.690  0.1467E+01  0.5770E+01
   3.700  0.1463E+01  0.5785E+01
   3.710  0.1458E+01  0.5799E+01
   3.720  0.1455E+01  0.5814E+01
   3.730  0.1452E+01  0.5828E+01
   3.740  0.1450E+01  0.5843E+01
   3.750  0.1449E+01  0.5857E+01
   3.760  0.1447E+01  0.5872E+01
   3.770  0.1446E+01  0.5886E+01
   3.780  0.1445E+01  0.5901E+01
   3.790  0.1443E+01  0.5915E+01
   3.800  0.1442E+01  0.5930E+01
   3.810  0.1440E+01  0.5944E+01
   3.820  0.1438E+01  0.5958E+01
   3.830  0.1439E+01  0.5973E+01
   3.840  0.1441E+01  0.5987E+01
   3.850  0.1485E+01  0.6003E+01
   3.860  0.1479E+01  0.6018E+01
   3.870  0.1472E+01  0.6032E+01
   3.880  0.1466E+01  0.6047E+01
   3.890  0.1462E+01  0.6062E+01
   3.900  0.1458E+01  0.6076E+01
   3.910  0.1455E+01  0.6091E+01
   3.920  0.1451E+01  0.6105E+01
   3.930  0.1448E+01  0.6120E+01
   3.940  0.1444E+01  0.6134E+01
   3.950  0.1440E+01  0.6149E+01
   3.960  0.1436E+01  0.6163E+01
   3.970  0.1433E+01  0.6178E+01
   3.980  0.1431E+01  0.6192E+01
   3.990  0.1430E+01  0.6206E+01
   4.000  0.1429E+01  0.6220E+01
   4.010  0.1428E+01  0.6235E+01
   4.020  0.1429E+01  0.6249E+01
   4.030  0.1431E+01  0.6263E+01
   4.040  0.1435E+01  0.6278E+01
   4.050  0.1432E+01  0.6292E+01
   4.060  0.1420E+01  0.6306E+01
   4.070  0.1410E+01  0.6320E+01
   4.080  0.1403E+01  0.6335E+01
   4.090  0.1399E+01  0.6349E+01
   4.100  0.1398E+01  0.6362E+01
   4.110  0.1396E+01  0.6376E+01
   4.120  0.1392E+01  0.6390E+01
   4.130  0.1388E+01  0.6404E+01
   4.140  0.1384E+01  0.6418E+01
   4.150  0.1380E+01  0.6432E+01
   4.160  0.1376E+01  0.6446E+01
   4.170  0.1372E+01  0.6460E+01
   4.180  0.1369E+01  0.6473E+01
   4.190  0.1365E+01  0.6487E+01
   4.200  0.1362E+01  0.6501E+01
   4.210  0.1359E+01  0.6514E+01
   4.220  0.1357E+01  0.6528E+01
   4.230  0.1355E+01  0.6541E+01
   4.240  0.1353E+01  0.6555E+01
   4.250  0.1352E+01  0.6568E+01
   4.260  0.1352E+01  0.6582E+01
   4.270  0.1352E+01  0.6595E+01
   4.280  0.1347E+01  0.6609E+01
   4.290  0.1345E+01  0.6622E+01
   4.300  0.1343E+01  0.6636E+01
   4.310  0.1340E+01  0.6649E+01
   4.320  0.1337E+01  0.6663E+01
   4.330  0.1335E+01  0.6676E+01
   4.340  0.1334E+01  0.6689E+01
   4.350  0.1338E+01  0.6703E+01
   4.360  0.1352E+01  0.6716E+01
   4.370  0.1361E+01  0.6730E+01
   4.380  0.1362E+01  0.6743E+01
   4.390  0.1356E+01  0.6757E+01
   4.400  0.1345E+01  0.6771E+01
   4.410  0.1334E+01  0.6784E+01
   4.420  0.1327E+01  0.6797E+01
   4.430  0.1323E+01  0.6811E+01
   4.440  0.1319E+01  0.6824E+01
   4.450  0.1315E+01  0.6837E+01
   4.460  0.1312E+01  0.6850E+01
   4.470  0.1309E+01  0.6863E+01
   4.480  0.1306E+01  0.6876E+01
   4.490  0.1303E+01  0.6889E+01
   4.500  0.1299E+01  0.6902E+01
   4.510  0.1295E+01  0.6915E+01
   4.520  0.1290E+01  0.6928E+01
   4.530  0.1285E+01  0.6941E+01
   4.540  0.1280E+01  0.6954E+01
   4.550  0.1276E+01  0.6967E+01
   4.560  0.1289E+01  0.6980E+01
   4.570  0.1289E+01  0.6992E+01
   4.580  0.1290E+01  0.7005E+01
   4.590  0.1290E+01  0.7018E+01
   4.600  0.1290E+01  0.7031E+01
   4.610  0.1289E+01  0.7044E+01
   4.620  0.1289E+01  0.7057E+01
   4.630  0.1284E+01  0.7070E+01
   4.640  0.1279E+01  0.7083E+01
   4.650  0.1274E+01  0.7095E+01
   4.660  0.1269E+01  0.7108E+01
   4.670  0.1264E+01  0.7121E+01
   4.680  0.1259E+01  0.7133E+01
   4.690  0.1254E+01  0.7146E+01
   4.700  0.1249E+01  0.7158E+01
   4.710  0.1244E+01  0.7171E+01
   4.720  0.1239E+01  0.7183E+01
   4.730  0.1234E+01  0.7196E+01
   4.740  0.1229E+01  0.7208E+01
   4.750  0.1225E+01  0.7220E+01
   4.760  0.1220E+01  0.7233E+01
   4.770  0.1232E+01  0.7245E+01
   4.780  0.1254E+01  0.7257E+01
   4.790  0.1265E+01  0.7270E+01
   4.800  0.1259E+01  0.7282E+01
   4.810  0.1252E+01  0.7295E+01
   4.820  0.1245E+01  0.7307E+01
   4.830  0.1238E+01  0.7320E+01
   4.840  0.1228E+01  0.7332E+01
   4.850  0.1215E+01  0.7344E+01
   4.860  0.1202E+01  0.7357E+01
   4.870  0.1189E+01  0.7368E+01
   4.880  0.1177E+01  0.7380E+01
   4.890  0.1165E+01  0.7392E+01
   4.900  0.1154E+01  0.7404E+01
   4.910  0.1143E+01  0.7415E+01
   4.920  0.1138E+01  0.7427E+01
   4.930  0.1122E+01  0.7438E+01
   4.940  0.1105E+01  0.7449E+01
   4.950  0.1144E+01  0.7461E+01
   4.960  0.1119E+01  0.7472E+01
   4.970  0.1094E+01  0.7483E+01
   4.980  0.1071E+01  0.7494E+01
   4.990  0.1049E+01  0.7505E+01
   5.000  0.1026E+01  0.7515E+01
   5.010  0.1003E+01  0.7525E+01
   5.020  0.9806E+00  0.7535E+01
   5.030  0.9616E+00  0.7545E+01
   5.040  0.9401E+00  0.7554E+01
   5.050  0.9194E+00  0.7564E+01
   5.060  0.8998E+00  0.7573E+01
   5.070  0.8807E+00  0.7582E+01
   5.080  0.8559E+00  0.7590E+01
   5.090  0.8343E+00  0.7599E+01
   5.100  0.8181E+00  0.7607E+01
   5.110  0.8072E+00  0.7615E+01
   5.120  0.7912E+00  0.7623E+01
   5.130  0.7784E+00  0.7631E+01
   5.140  0.7634E+00  0.7639E+01
   5.150  0.7500E+00  0.7646E+01
   5.160  0.7372E+00  0.7654E+01
   5.170  0.7240E+00  0.7661E+01
   5.180  0.7110E+00  0.7668E+01
   5.190  0.6982E+00  0.7675E+01
   5.200  0.6856E+00  0.7682E+01
   5.210  0.6735E+00  0.7689E+01
   5.220  0.6615E+00  0.7696E+01
   5.230  0.6500E+00  0.7702E+01
   5.240  0.6387E+00  0.7709E+01
   5.250  0.6277E+00  0.7715E+01
   5.260  0.6170E+00  0.7721E+01
   5.270  0.6066E+00  0.7727E+01
   5.280  0.5970E+00  0.7733E+01
   5.290  0.5876E+00  0.7739E+01
   5.300  0.5784E+00  0.7745E+01
   5.310  0.5693E+00  0.7751E+01
   5.320  0.5605E+00  0.7756E+01
   5.330  0.5518E+00  0.7762E+01
   5.340  0.5432E+00  0.7768E+01
   5.350  0.5343E+00  0.7773E+01
   5.360  0.5245E+00  0.7778E+01
   5.370  0.5137E+00  0.7783E+01
   5.380  0.5020E+00  0.7788E+01
   5.390  0.4915E+00  0.7793E+01
   5.400  0.4846E+00  0.7798E+01
   5.410  0.4785E+00  0.7803E+01
   5.420  0.4755E+00  0.7808E+01
   5.430  0.4721E+00  0.7813E+01
   5.440  0.4688E+00  0.7817E+01
   5.450  0.4657E+00  0.7822E+01
   5.460  0.4628E+00  0.7827E+01
   5.470  0.4600E+00  0.7831E+01
   5.480  0.4573E+00  0.7836E+01
   5.490  0.4520E+00  0.7840E+01
   5.500  0.4450E+00  0.7845E+01
   5.510  0.4382E+00  0.7849E+01
   5.520  0.4314E+00  0.7854E+01
   5.530  0.4247E+00  0.7858E+01
   5.540  0.4178E+00  0.7862E+01
   5.550  0.4107E+00  0.7866E+01
   5.560  0.4036E+00  0.7870E+01
   5.570  0.3995E+00  0.7875E+01
   5.580  0.3920E+00  0.7879E+01
   5.590  0.3853E+00  0.7883E+01
   5.600  0.3788E+00  0.7886E+01
   5.610  0.3724E+00  0.7890E+01
   5.620  0.3665E+00  0.7894E+01
   5.630  0.3619E+00  0.7898E+01
   5.640  0.3568E+00  0.7901E+01
   5.650  0.3512E+00  0.7905E+01
   5.660  0.3451E+00  0.7908E+01
   5.670  0.3386E+00  0.7912E+01
   5.680  0.3317E+00  0.7915E+01
   5.690  0.3241E+00  0.7918E+01
   5.700  0.3160E+00  0.7921E+01
   5.710  0.3073E+00  0.7925E+01
   5.720  0.2998E+00  0.7928E+01
   5.730  0.2926E+00  0.7931E+01
   5.740  0.2842E+00  0.7933E+01
   5.750  0.2757E+00  0.7936E+01
   5.760  0.2669E+00  0.7939E+01
   5.770  0.2583E+00  0.7942E+01
   5.780  0.2513E+00  0.7944E+01
   5.790  0.2446E+00  0.7947E+01
   5.800  0.2380E+00  0.7949E+01
   5.810  0.2405E+00  0.7951E+01
   5.820  0.2426E+00  0.7954E+01
   5.830  0.2393E+00  0.7956E+01
   5.840  0.2307E+00  0.7959E+01
   5.850  0.2217E+00  0.7961E+01
   5.860  0.2149E+00  0.7963E+01
   5.870  0.2083E+00  0.7965E+01
   5.880  0.2018E+00  0.7967E+01
   5.890  0.1954E+00  0.7969E+01
   5.900  0.1890E+00  0.7971E+01
   5.910  0.1827E+00  0.7973E+01
   5.920  0.1763E+00  0.7975E+01
   5.930  0.1701E+00  0.7976E+01
   5.940  0.1639E+00  0.7978E+01
   5.950  0.1577E+00  0.7980E+01
   5.960  0.1514E+00  0.7981E+01
   5.970  0.1496E+00  0.7983E+01
   5.980  0.1414E+00  0.7985E+01
   5.990  0.1334E+00  0.7986E+01
   6.000  0.1256E+00  0.7987E+01
   6.010  0.1181E+00  0.7989E+01
   6.020  0.1123E+00  0.7990E+01
   6.030  0.1083E+00  0.7991E+01
   6.040  0.1046E+00  0.7992E+01
   6.050  0.1012E+00  0.7993E+01
   6.060  0.9810E-01  0.7994E+01
   6.070  0.9333E-01  0.7995E+01
   6.080  0.8346E-01  0.7996E+01
   6.090  0.7401E-01  0.7997E+01
   6.100  0.6497E-01  0.7998E+01
   6.110  0.5635E-01  0.7998E+01
   6.120  0.4814E-01  0.7999E+01
   6.130  0.4035E-01  0.7999E+01
   6.140  0.3118E-01  0.7999E+01
   6.150  0.1974E-01  0.8000E+01
   6.160  0.1091E-01  0.8000E+01
   6.170  0.4673E-02  0.8000E+01
   6.180  0.1043E-02  0.8000E+01
   6.190  0.0000E+00  0.8000E+01
   6.200  0.0000E+00  0.8000E+01
   6.210  0.0000E+00  0.8000E+01
   6.220  0.0000E+00  0.8000E+01
   6.230  0.0000E+00  0.8000E+01
   6.240  0.0000E+00  0.8000E+01
   6.250  0.0000E+00  0.8000E+01
   6.260  0.0000E+00  0.8000E+01
   6.270  0.0000E+00  0.8000E+01
   6.280  0.0000E+00  0.8000E+01
   6.290  0.0000E+00  0.8000E+01
   6.300  0.0000E+00  0.8000E+01
   6.310  0.0000E+00  0.8000E+01
   6.320  0.0000E+00  0.8000E+01
   6.330  0.0000E+00  0.8000E+01
   6.340  0.0000E+00  0.8000E+01
   6.350  0.0000E+00  0.8000E+01
   6.360  0.0000E+00  0.8000E+01
   6.370  0.0000E+00  0.8000E+01
   6.380  0.0000E+00  0.8000E+01
   6.390  0.0000E+00  0.8000E+01
   6.400  0.0000E+00  0.8000E+01
   6.410  0.0000E+00  0.8000E+01
   6.420  0.0000E+00  0.8000E+01
   6.430  0.0000E+00  0.8000E+01
   6.440  0.0000E+00  0.8000E+01
   6.450  0.0000E+00  0.8000E+01
   6.460  0.0000E+00  0.8000E+01
   6.470  0.0000E+00  0.8000E+01
   6.480  0.0000E+00  0.8000E+01
   6.490  0.0000E+00  0.8000E+01
   6.500  0.0000E+00  0.8000E+01
   6.510  0.0000E+00  0.8000E+01
   6.520  0.0000E+00  0.8000E+01
   6.530  0.0000E+00  0.8000E+01
   6.540  0.0000E+00  0.8000E+01
   6.550  0.0000E+00  0.8000E+01
   6.560  0.0000E+00  0.8000E+01
   6.570  0.0000E+00  0.8000E+01
   6.580  0.0000E+00  0.8000E+01
   6.590  0.0000E+00  0.8000E+01
   6.600  0.0000E+00  0.8000E+01
   6.610  0.0000E+00  0.8000E+01
   6.620  0.0000E+00  0.8000E+01
   6.630  0.0000E+00  0.8000E+01
   6.640  0.0000E+00  0.8000E+01
   6.650  0.0000E+00  0.8000E+01
   6.660  0.0000E+00  0.8000E+01
   6.670  0.0000E+00  0.8000E+01
   6.680  0.0000E+00  0.8000E+01
   6.690  0.0000E+00  0.8000E+01
   6.700  0.0000E+00  0.8000E+01
   6.710  0.0000E+00  0.8000E+01
   6.720  0.0000E+00  0.8000E+01
   6.730  0.0000E+00  0.8000E+01
   6.740  0.0000E+00  0.8000E+01
   6.750  0.0000E+00  0.8000E+01
   6.760  0.0000E+00  0.8000E+01
   6.770  0.0000E+00  0.8000E+01
   6.780  0.0000E+00  0.8000E+01
   6.790  0.0000E+00  0.8000E+01
   6.800  0.0000E+00  0.8000E+01
   6.810  0.0000E+00  0.8000E+01
   6.820  0.0000E+00  0.8000E+01
   6.830  0.0000E+00  0.8000E+01
   6.840  0.0000E+00  0.8000E+01
   6.850  0.0000E+00  0.8000E+01
   6.860  0.0000E+00  0.8000E+01
   6.870  0.0000E+00  0.8000E+01
   6.880  0.0000E+00  0.8000E+01
   6.890  0.0000E+00  0.8000E+01
   6.900  0.0000E+00  0.8000E+01
   6.910  0.3399E-03  0.8000E+01
   6.920  0.4615E-02  0.8000E+01
   6.930  0.9624E-02  0.8000E+01
   6.940  0.1642E-01  0.8000E+01
   6.950  0.2507E-01  0.8000E+01
   6.960  0.3551E-01  0.8001E+01
   6.970  0.4623E-01  0.8001E+01
   6.980  0.5666E-01  0.8002E+01
   6.990  0.6678E-01  0.8002E+01
   7.000  0.7659E-01  0.8003E+01
   7.010  0.8619E-01  0.8004E+01
   7.020  0.9601E-01  0.8005E+01
   7.030  0.1061E+00  0.8006E+01
   7.040  0.1166E+00  0.8007E+01
   7.050  0.1273E+00  0.8008E+01
   7.060  0.1383E+00  0.8009E+01
   7.070  0.1496E+00  0.8011E+01
   7.080  0.1612E+00  0.8012E+01
   7.090  0.1731E+00  0.8014E+01
   7.100  0.1853E+00  0.8016E+01
   7.110  0.1976E+00  0.8018E+01
   7.120  0.2098E+00  0.8020E+01
   7.130  0.2221E+00  0.8022E+01
   7.140  0.2343E+00  0.8024E+01
   7.150  0.2465E+00  0.8027E+01
   7.160  0.2582E+00  0.8029E+01
   7.170  0.2500E+00  0.8032E+01
   7.180  0.2525E+00  0.8034E+01
   7.190  0.2528E+00  0.8037E+01
   7.200  0.2524E+00  0.8039E+01
   7.210  0.2512E+00  0.8042E+01
   7.220  0.2541E+00  0.8044E+01
   7.230  0.2606E+00  0.8047E+01
   7.240  0.2674E+00  0.8050E+01
   7.250  0.2744E+00  0.8052E+01
   7.260  0.2817E+00  0.8055E+01
   7.270  0.2894E+00  0.8058E+01
   7.280  0.2976E+00  0.8061E+01
   7.290  0.3062E+00  0.8064E+01
   7.300  0.3152E+00  0.8067E+01
   7.310  0.3246E+00  0.8070E+01
   7.320  0.3318E+00  0.8073E+01
   7.330  0.3383E+00  0.8077E+01
   7.340  0.3450E+00  0.8080E+01
   7.350  0.3518E+00  0.8084E+01
   7.360  0.3587E+00  0.8087E+01
   7.370  0.3651E+00  0.8091E+01
   7.380  0.3709E+00  0.8095E+01
   7.390  0.3764E+00  0.8098E+01
   7.400  0.3816E+00  0.8102E+01
   7.410  0.3867E+00  0.8106E+01
   7.420  0.3919E+00  0.8110E+01
   7.430  0.3968E+00  0.8114E+01
   7.440  0.4015E+00  0.8118E+01
   7.450  0.4060E+00  0.8122E+01
   7.460  0.4103E+00  0.8126E+01
   7.470  0.4150E+00  0.8130E+01
   7.480  0.4217E+00  0.8134E+01
   7.490  0.4283E+00  0.8138E+01
   7.500  0.4351E+00  0.8143E+01
   7.510  0.4418E+00  0.8147E+01
   7.520  0.4487E+00  0.8152E+01
   7.530  0.4556E+00  0.8156E+01
   7.540  0.4625E+00  0.8161E+01
   7.550  0.4695E+00  0.8165E+01
   7.560  0.4577E+00  0.8170E+01
   7.570  0.4631E+00  0.8175E+01
   7.580  0.4685E+00  0.8179E+01
   7.590  0.4739E+00  0.8184E+01
   7.600  0.4793E+00  0.8189E+01
   7.610  0.4849E+00  0.8194E+01
   7.620  0.4914E+00  0.8198E+01
   7.630  0.4988E+00  0.8203E+01
   7.640  0.5071E+00  0.8208E+01
   7.650  0.5161E+00  0.8214E+01
   7.660  0.5256E+00  0.8219E+01
   7.670  0.5360E+00  0.8224E+01
   7.680  0.5441E+00  0.8229E+01
   7.690  0.5522E+00  0.8235E+01
   7.700  0.5626E+00  0.8241E+01
   7.710  0.5754E+00  0.8246E+01
   7.720  0.5811E+00  0.8252E+01
   7.730  0.5867E+00  0.8258E+01
   7.740  0.5922E+00  0.8264E+01
   7.750  0.5972E+00  0.8270E+01
   7.760  0.6021E+00  0.8276E+01
   7.770  0.6070E+00  0.8282E+01
   7.780  0.6119E+00  0.8288E+01
   7.790  0.6168E+00  0.8294E+01
   7.800  0.6216E+00  0.8300E+01
   7.810  0.6265E+00  0.8306E+01
   7.820  0.6313E+00  0.8313E+01
   7.830  0.6362E+00  0.8319E+01
   7.840  0.6411E+00  0.8325E+01
   7.850  0.6461E+00  0.8332E+01
   7.860  0.6513E+00  0.8338E+01
   7.870  0.6567E+00  0.8345E+01
   7.880  0.6625E+00  0.8351E+01
   7.890  0.6685E+00  0.8358E+01
   7.900  0.6739E+00  0.8365E+01
   7.910  0.6783E+00  0.8372E+01
   7.920  0.6818E+00  0.8378E+01
   7.930  0.6867E+00  0.8385E+01
   7.940  0.6935E+00  0.8392E+01
   7.950  0.7005E+00  0.8399E+01
   7.960  0.7077E+00  0.8406E+01
   7.970  0.7152E+00  0.8413E+01
   7.980  0.7228E+00  0.8420E+01
   7.990  0.7298E+00  0.8428E+01
   8.000  0.7385E+00  0.8435E+01
   8.010  0.7501E+00  0.8443E+01
   8.020  0.7643E+00  0.8450E+01
   8.030  0.7779E+00  0.8458E+01
   8.040  0.7904E+00  0.8466E+01
   8.050  0.8038E+00  0.8474E+01
   8.060  0.8181E+00  0.8482E+01
   8.070  0.8329E+00  0.8490E+01
   8.080  0.8482E+00  0.8498E+01
   8.090  0.8638E+00  0.8507E+01
   8.100  0.8797E+00  0.8516E+01
   8.110  0.8959E+00  0.8525E+01
   8.120  0.9123E+00  0.8534E+01
   8.130  0.9286E+00  0.8543E+01
   8.140  0.9448E+00  0.8552E+01
   8.150  0.9610E+00  0.8562E+01
   8.160  0.9771E+00  0.8571E+01
   8.170  0.9931E+00  0.8581E+01
   8.180  0.1010E+01  0.8591E+01
   8.190  0.1028E+01  0.8601E+01
   8.200  0.1052E+01  0.8612E+01
   8.210  0.1085E+01  0.8622E+01
   8.220  0.1107E+01  0.8633E+01
   8.230  0.1130E+01  0.8645E+01
   8.240  0.1154E+01  0.8656E+01
   8.250  0.1179E+01  0.8668E+01
   8.260  0.1184E+01  0.8680E+01
   8.270  0.1206E+01  0.8692E+01
   8.280  0.1228E+01  0.8704E+01
   8.290  0.1251E+01  0.8716E+01
   8.300  0.1275E+01  0.8729E+01
   8.310  0.1300E+01  0.8742E+01
   8.320  0.1326E+01  0.8755E+01
   8.330  0.1366E+01  0.8769E+01
   8.340  0.1402E+01  0.8782E+01
   8.350  0.1425E+01  0.8797E+01
   8.360  0.1458E+01  0.8811E+01
   8.370  0.1494E+01  0.8826E+01
   8.380  0.1526E+01  0.8841E+01
   8.390  0.1553E+01  0.8856E+01
   8.400  0.1574E+01  0.8872E+01
   8.410  0.1599E+01  0.8888E+01
   8.420  0.1632E+01  0.8904E+01
   8.430  0.1666E+01  0.8920E+01
   8.440  0.1701E+01  0.8937E+01
   8.450  0.1738E+01  0.8954E+01
   8.460  0.1775E+01  0.8972E+01
   8.470  0.1816E+01  0.8990E+01
   8.480  0.1859E+01  0.9008E+01
   8.490  0.1913E+01  0.9027E+01
   8.500  0.1966E+01  0.9047E+01
   8.510  0.2004E+01  0.9066E+01
   8.520  0.2032E+01  0.9087E+01
   8.530  0.2053E+01  0.9107E+01
   8.540  0.2076E+01  0.9128E+01
   8.550  0.2141E+01  0.9149E+01
   8.560  0.2078E+01  0.9170E+01
   8.570  0.2035E+01  0.9191E+01
   8.580  0.2001E+01  0.9211E+01
   8.590  0.1974E+01  0.9231E+01
   8.600  0.1954E+01  0.9250E+01
   8.610  0.1942E+01  0.9270E+01
   8.620  0.1937E+01  0.9289E+01
   8.630  0.1932E+01  0.9309E+01
   8.640  0.1927E+01  0.9328E+01
   8.650  0.1922E+01  0.9347E+01
   8.660  0.1917E+01  0.9366E+01
   8.670  0.1910E+01  0.9386E+01
   8.680  0.1905E+01  0.9405E+01
   8.690  0.1900E+01  0.9424E+01
   8.700  0.1893E+01  0.9443E+01
   8.710  0.1885E+01  0.9461E+01
   8.720  0.1881E+01  0.9480E+01
   8.730  0.1967E+01  0.9500E+01
   8.740  0.1986E+01  0.9520E+01
   8.750  0.2002E+01  0.9540E+01
   8.760  0.2020E+01  0.9560E+01
   8.770  0.2045E+01  0.9580E+01
   8.780  0.1980E+01  0.9601E+01
   8.790  0.1898E+01  0.9620E+01
   8.800  0.1845E+01  0.9639E+01
   8.810  0.1808E+01  0.9657E+01
   8.820  0.1769E+01  0.9675E+01
   8.830  0.1730E+01  0.9692E+01
   8.840  0.1689E+01  0.9709E+01
   8.850  0.1652E+01  0.9726E+01
   8.860  0.1619E+01  0.9742E+01
   8.870  0.1591E+01  0.9758E+01
   8.880  0.1564E+01  0.9774E+01
   8.890  0.1544E+01  0.9790E+01
   8.900  0.1518E+01  0.9805E+01
   8.910  0.1490E+01  0.9820E+01
   8.920  0.1463E+01  0.9835E+01
   8.930  0.1436E+01  0.9849E+01
   8.940  0.1410E+01  0.9864E+01
   8.950  0.1384E+01  0.9878E+01
   8.960  0.1363E+01  0.9891E+01
   8.970  0.1353E+01  0.9905E+01
   8.980  0.1333E+01  0.9918E+01
   8.990  0.1289E+01  0.9931E+01
   9.000  0.1253E+01  0.9944E+01
   9.010  0.1231E+01  0.9956E+01
   9.020  0.1209E+01  0.9969E+01
   9.030  0.1188E+01  0.9981E+01
   9.040  0.1167E+01  0.9992E+01
   9.050  0.1147E+01  0.1000E+02
   9.060  0.1128E+01  0.1002E+02
   9.070  0.1110E+01  0.1003E+02
   9.080  0.1095E+01  0.1004E+02
   9.090  0.1078E+01  0.1005E+02
   9.100  0.1062E+01  0.1006E+02
   9.110  0.1045E+01  0.1007E+02
   9.120  0.1029E+01  0.1008E+02
   9.130  0.1012E+01  0.1009E+02
   9.140  0.9958E+00  0.1010E+02
   9.150  0.9814E+00  0.1011E+02
   9.160  0.9627E+00  0.1012E+02
   9.170  0.9440E+00  0.1013E+02
   9.180  0.9235E+00  0.1014E+02
   9.190  0.9011E+00  0.1015E+02
   9.200  0.8774E+00  0.1016E+02
   9.210  0.8541E+00  0.1017E+02
   9.220  0.8472E+00  0.1017E+02
   9.230  0.8312E+00  0.1018E+02
   9.240  0.8160E+00  0.1019E+02
   9.250  0.8009E+00  0.1020E+02
   9.260  0.7888E+00  0.1021E+02
   9.270  0.7782E+00  0.1022E+02
   9.280  0.7696E+00  0.1022E+02
   9.290  0.7640E+00  0.1023E+02
   9.300  0.7609E+00  0.1024E+02
   9.310  0.7602E+00  0.1025E+02
   9.320  0.7615E+00  0.1025E+02
   9.330  0.7643E+00  0.1026E+02
   9.340  0.7687E+00  0.1027E+02
   9.350  0.7740E+00  0.1028E+02
   9.360  0.7799E+00  0.1028E+02
   9.370  0.7834E+00  0.1029E+02
   9.380  0.7847E+00  0.1030E+02
   9.390  0.7971E+00  0.1031E+02
   9.400  0.8101E+00  0.1032E+02
   9.410  0.8230E+00  0.1032E+02
   9.420  0.8371E+00  0.1033E+02
   9.430  0.8524E+00  0.1034E+02
   9.440  0.8688E+00  0.1035E+02
   9.450  0.8856E+00  0.1036E+02
   9.460  0.9027E+00  0.1037E+02
   9.470  0.9208E+00  0.1038E+02
   9.480  0.9790E+00  0.1039E+02
   9.490  0.1082E+01  0.1040E+02
   9.500  0.1282E+01  0.1041E+02
   9.510  0.1414E+01  0.1042E+02
   9.520  0.1523E+01  0.1044E+02
   9.530  0.1639E+01  0.1045E+02
   9.540  0.1806E+01  0.1047E+02
   9.550  0.1969E+01  0.1049E+02
   9.560  0.2005E+01  0.1051E+02
   9.570  0.2037E+01  0.1053E+02
   9.580  0.2037E+01  0.1055E+02
   9.590  0.2048E+01  0.1057E+02
   9.600  0.2036E+01  0.1059E+02
   9.610  0.1986E+01  0.1061E+02
   9.620  0.1998E+01  0.1063E+02
   9.630  0.2015E+01  0.1065E+02
   9.640  0.2067E+01  0.1067E+02
   9.650  0.2166E+01  0.1069E+02
   9.660  0.2070E+01  0.1071E+02
   9.670  0.1987E+01  0.1073E+02
   9.680  0.1952E+01  0.1075E+02
   9.690  0.1943E+01  0.1077E+02
   9.700  0.1935E+01  0.1079E+02
   9.710  0.1929E+01  0.1081E+02
   9.720  0.1957E+01  0.1083E+02
   9.730  0.1970E+01  0.1085E+02
   9.740  0.1962E+01  0.1087E+02
   9.750  0.1965E+01  0.1089E+02
   9.760  0.1978E+01  0.1091E+02
   9.770  0.1950E+01  0.1093E+02
   9.780  0.1941E+01  0.1095E+02
   9.790  0.1941E+01  0.1097E+02
   9.800  0.1939E+01  0.1099E+02
   9.810  0.1940E+01  0.1101E+02
   9.820  0.1943E+01  0.1103E+02
   9.830  0.1947E+01  0.1104E+02
   9.840  0.1949E+01  0.1106E+02
   9.850  0.1956E+01  0.1108E+02
   9.860  0.1938E+01  0.1110E+02
   9.870  0.1935E+01  0.1112E+02
   9.880  0.1939E+01  0.1114E+02
   9.890  0.1942E+01  0.1116E+02
   9.900  0.1943E+01  0.1118E+02
   9.910  0.1941E+01  0.1120E+02
   9.920  0.1936E+01  0.1122E+02
   9.930  0.1930E+01  0.1124E+02
   9.940  0.1923E+01  0.1126E+02
   9.950  0.1915E+01  0.1128E+02
   9.960  0.1905E+01  0.1130E+02
   9.970  0.1894E+01  0.1132E+02
   9.980  0.1886E+01  0.1133E+02
   9.990  0.1882E+01  0.1135E+02
  10.000  0.1879E+01  0.1137E+02
  10.010  0.1874E+01  0.1139E+02
  10.020  0.1868E+01  0.1141E+02
  10.030  0.1860E+01  0.1143E+02
  10.040  0.1847E+01  0.1145E+02
  10.050  0.1832E+01  0.1147E+02
  10.060  0.1818E+01  0.1148E+02
  10.070  0.1802E+01  0.1150E+02
  10.080  0.1787E+01  0.1152E+02
  10.090  0.1771E+01  0.1154E+02
  10.100  0.1755E+01  0.1156E+02
  10.110  0.1739E+01  0.1157E+02
  10.120  0.1722E+01  0.1159E+02
  10.130  0.1704E+01  0.1161E+02
  10.140  0.1687E+01  0.1162E+02
  10.150  0.1675E+01  0.1164E+02
  10.160  0.1660E+01  0.1166E+02
  10.170  0.1624E+01  0.1167E+02
  10.180  0.1560E+01  0.1169E+02
  10.190  0.1578E+01  0.1171E+02
  10.200  0.1574E+01  0.1172E+02
  10.210  0.1536E+01  0.1174E+02
  10.220  0.1521E+01  0.1175E+02
  10.230  0.1503E+01  0.1177E+02
  10.240  0.1488E+01  0.1178E+02
  10.250  0.1474E+01  0.1180E+02
  10.260  0.1461E+01  0.1181E+02
  10.270  0.1447E+01  0.1183E+02
  10.280  0.1434E+01  0.1184E+02
  10.290  0.1419E+01  0.1186E+02
  10.300  0.1405E+01  0.1187E+02
  10.310  0.1393E+01  0.1188E+02
  10.320  0.1380E+01  0.1190E+02
  10.330  0.1368E+01  0.1191E+02
  10.340  0.1358E+01  0.1192E+02
  10.350  0.1347E+01  0.1194E+02
  10.360  0.1338E+01  0.1195E+02
  10.370  0.1329E+01  0.1196E+02
  10.380  0.1320E+01  0.1198E+02
  10.390  0.1312E+01  0.1199E+02
  10.400  0.1305E+01  0.1200E+02
  10.410  0.1300E+01  0.1202E+02
  10.420  0.1295E+01  0.1203E+02
  10.430  0.1291E+01  0.1204E+02
  10.440  0.1288E+01  0.1206E+02
  10.450  0.1285E+01  0.1207E+02
  10.460  0.1283E+01  0.1208E+02
  10.470  0.1277E+01  0.1209E+02
  10.480  0.1270E+01  0.1211E+02
  10.490  0.1264E+01  0.1212E+02
  10.500  0.1259E+01  0.1213E+02
  10.510  0.1251E+01  0.1215E+02
  10.520  0.1239E+01  0.1216E+02
  10.530  0.1208E+01  0.1217E+02
  10.540  0.1190E+01  0.1218E+02
  10.550  0.1176E+01  0.1219E+02
  10.560  0.1173E+01  0.1221E+02
  10.570  0.1171E+01  0.1222E+02
  10.580  0.1169E+01  0.1223E+02
  10.590  0.1168E+01  0.1224E+02
  10.600  0.1169E+01  0.1225E+02
  10.610  0.1171E+01  0.1226E+02
  10.620  0.1172E+01  0.1228E+02
  10.630  0.1173E+01  0.1229E+02
  10.640  0.1174E+01  0.1230E+02
  10.650  0.1181E+01  0.1231E+02
  10.660  0.1183E+01  0.1232E+02
  10.670  0.1181E+01  0.1233E+02
  10.680  0.1179E+01  0.1235E+02
  10.690  0.1173E+01  0.1236E+02
  10.700  0.1165E+01  0.1237E+02
  10.710  0.1163E+01  0.1238E+02
  10.720  0.1159E+01  0.1239E+02
  10.730  0.1156E+01  0.1240E+02
  10.740  0.1151E+01  0.1242E+02
  10.750  0.1146E+01  0.1243E+02
  10.760  0.1141E+01  0.1244E+02
  10.770  0.1136E+01  0.1245E+02
  10.780  0.1130E+01  0.1246E+02
  10.790  0.1124E+01  0.1247E+02
  10.800  0.1117E+01  0.1248E+02
  10.810  0.1112E+01  0.1250E+02
  10.820  0.1106E+01  0.1251E+02
  10.830  0.1100E+01  0.1252E+02
  10.840  0.1099E+01  0.1253E+02
  10.850  0.1099E+01  0.1254E+02
  10.860  0.1098E+01  0.1255E+02
  10.870  0.1092E+01  0.1256E+02
  10.880  0.1088E+01  0.1257E+02
  10.890  0.1086E+01  0.1258E+02
  10.900  0.1082E+01  0.1259E+02
  10.910  0.1078E+01  0.1260E+02
  10.920  0.1073E+01  0.1262E+02
  10.930  0.1065E+01  0.1263E+02
  10.940  0.1057E+01  0.1264E+02
  10.950  0.1050E+01  0.1265E+02
  10.960  0.1047E+01  0.1266E+02
  10.970  0.1048E+01  0.1267E+02
  10.980  0.1059E+01  0.1268E+02
  10.990  0.1068E+01  0.1269E+02
  11.000  0.1074E+01  0.1270E+02
  11.010  0.1076E+01  0.1271E+02
  11.020  0.1074E+01  0.1272E+02
  11.030  0.1074E+01  0.1273E+02
  11.040  0.1077E+01  0.1274E+02
  11.050  0.1080E+01  0.1275E+02
  11.060  0.1083E+01  0.1276E+02
  11.070  0.1086E+01  0.1278E+02
  11.080  0.1088E+01  0.1279E+02
  11.090  0.1091E+01  0.1280E+02
  11.100  0.1096E+01  0.1281E+02
  11.110  0.1100E+01  0.1282E+02
  11.120  0.1105E+01  0.1283E+02
  11.130  0.1110E+01  0.1284E+02
  11.140  0.1114E+01  0.1285E+02
  11.150  0.1119E+01  0.1286E+02
  11.160  0.1123E+01  0.1288E+02
  11.170  0.1127E+01  0.1289E+02
  11.180  0.1135E+01  0.1290E+02
  11.190  0.1148E+01  0.1291E+02
  11.200  0.1164E+01  0.1292E+02
  11.210  0.1184E+01  0.1293E+02
  11.220  0.1211E+01  0.1294E+02
  11.230  0.1172E+01  0.1296E+02
  11.240  0.1175E+01  0.1297E+02
  11.250  0.1178E+01  0.1298E+02
  11.260  0.1181E+01  0.1299E+02
  11.270  0.1183E+01  0.1300E+02
  11.280  0.1188E+01  0.1302E+02
  11.290  0.1193E+01  0.1303E+02
  11.300  0.1197E+01  0.1304E+02
  11.310  0.1201E+01  0.1305E+02
  11.320  0.1205E+01  0.1306E+02
  11.330  0.1209E+01  0.1308E+02
  11.340  0.1211E+01  0.1309E+02
  11.350  0.1212E+01  0.1310E+02
  11.360  0.1213E+01  0.1311E+02
  11.370  0.1214E+01  0.1312E+02
  11.380  0.1213E+01  0.1314E+02
  11.390  0.1211E+01  0.1315E+02
  11.400  0.1208E+01  0.1316E+02
  11.410  0.1210E+01  0.1317E+02
  11.420  0.1213E+01  0.1318E+02
  11.430  0.1217E+01  0.1320E+02
  11.440  0.1222E+01  0.1321E+02
  11.450  0.1227E+01  0.1322E+02
  11.460  0.1234E+01  0.1323E+02
  11.470  0.1241E+01  0.1325E+02
  11.480  0.1211E+01  0.1326E+02
  11.490  0.1214E+01  0.1327E+02
  11.500  0.1217E+01  0.1328E+02
  11.510  0.1223E+01  0.1329E+02
  11.520  0.1229E+01  0.1331E+02
  11.530  0.1233E+01  0.1332E+02
  11.540  0.1236E+01  0.1333E+02
  11.550  0.1235E+01  0.1334E+02
  11.560  0.1235E+01  0.1336E+02
  11.570  0.1239E+01  0.1337E+02
  11.580  0.1243E+01  0.1338E+02
  11.590  0.1247E+01  0.1339E+02
  11.600  0.1252E+01  0.1341E+02
  11.610  0.1261E+01  0.1342E+02
  11.620  0.1258E+01  0.1343E+02
  11.630  0.1224E+01  0.1344E+02
  11.640  0.1224E+01  0.1346E+02
  11.650  0.1225E+01  0.1347E+02
  11.660  0.1226E+01  0.1348E+02
  11.670  0.1228E+01  0.1349E+02
  11.680  0.1229E+01  0.1350E+02
  11.690  0.1231E+01  0.1352E+02
  11.700  0.1233E+01  0.1353E+02
  11.710  0.1236E+01  0.1354E+02
  11.720  0.1229E+01  0.1355E+02
  11.730  0.1230E+01  0.1357E+02
  11.740  0.1230E+01  0.1358E+02
  11.750  0.1228E+01  0.1359E+02
  11.760  0.1225E+01  0.1360E+02
  11.770  0.1222E+01  0.1361E+02
  11.780  0.1218E+01  0.1363E+02
  11.790  0.1214E+01  0.1364E+02
  11.800  0.1210E+01  0.1365E+02
  11.810  0.1206E+01  0.1366E+02
  11.820  0.1201E+01  0.1368E+02
  11.830  0.1197E+01  0.1369E+02
  11.840  0.1191E+01  0.1370E+02
  11.850  0.1185E+01  0.1371E+02
  11.860  0.1177E+01  0.1372E+02
  11.870  0.1169E+01  0.1373E+02
  11.880  0.1160E+01  0.1375E+02
  11.890  0.1152E+01  0.1376E+02
  11.900  0.1144E+01  0.1377E+02
  11.910  0.1136E+01  0.1378E+02
  11.920  0.1128E+01  0.1379E+02
  11.930  0.1121E+01  0.1380E+02
  11.940  0.1115E+01  0.1381E+02
  11.950  0.1109E+01  0.1383E+02
  11.960  0.1103E+01  0.1384E+02
  11.970  0.1097E+01  0.1385E+02
  11.980  0.1091E+01  0.1386E+02
  11.990  0.1086E+01  0.1387E+02
  12.000  0.1080E+01  0.1388E+02
  12.010  0.1075E+01  0.1389E+02
  12.020  0.1070E+01  0.1390E+02
  12.030  0.1064E+01  0.1391E+02
  12.040  0.1059E+01  0.1392E+02
  12.050  0.1054E+01  0.1393E+02
  12.060  0.1049E+01  0.1394E+02
  12.070  0.1044E+01  0.1395E+02
  12.080  0.1039E+01  0.1397E+02
  12.090  0.1033E+01  0.1398E+02
  12.100  0.1030E+01  0.1399E+02
  12.110  0.1027E+01  0.1400E+02
  12.120  0.1025E+01  0.1401E+02
  12.130  0.1021E+01  0.1402E+02
  12.140  0.1018E+01  0.1403E+02
  12.150  0.1015E+01  0.1404E+02
  12.160  0.1011E+01  0.1405E+02
  12.170  0.1008E+01  0.1406E+02
  12.180  0.1004E+01  0.1407E+02
  12.190  0.1001E+01  0.1408E+02
  12.200  0.9971E+00  0.1409E+02
  12.210  0.9931E+00  0.1410E+02
  12.220  0.9891E+00  0.1411E+02
  12.230  0.9918E+00  0.1412E+02
  12.240  0.1001E+01  0.1413E+02
  12.250  0.1001E+01  0.1414E+02
  12.260  0.9959E+00  0.1415E+02
  12.270  0.9961E+00  0.1416E+02
  12.280  0.1008E+01  0.1417E+02
  12.290  0.1026E+01  0.1418E+02
  12.300  0.1025E+01  0.1419E+02
  12.310  0.1010E+01  0.1420E+02
  12.320  0.9978E+00  0.1421E+02
  12.330  0.9883E+00  0.1422E+02
  12.340  0.9817E+00  0.1423E+02
  12.350  0.9777E+00  0.1424E+02
  12.360  0.9737E+00  0.1425E+02
  12.370  0.9688E+00  0.1426E+02
  12.380  0.9630E+00  0.1427E+02
  12.390  0.9580E+00  0.1428E+02
  12.400  0.9540E+00  0.1429E+02
  12.410  0.9498E+00  0.1430E+02
  12.420  0.9455E+00  0.1430E+02
  12.430  0.9410E+00  0.1431E+02
  12.440  0.9365E+00  0.1432E+02
  12.450  0.9329E+00  0.1433E+02
  12.460  0.9305E+00  0.1434E+02
  12.470  0.9290E+00  0.1435E+02
  12.480  0.9285E+00  0.1436E+02
  12.490  0.9287E+00  0.1437E+02
  12.500  0.9293E+00  0.1438E+02
  12.510  0.9299E+00  0.1439E+02
  12.520  0.9307E+00  0.1440E+02
  12.530  0.9316E+00  0.1441E+02
  12.540  0.9328E+00  0.1442E+02
  12.550  0.9408E+00  0.1443E+02
  12.560  0.9504E+00  0.1444E+02
  12.570  0.9494E+00  0.1444E+02
  12.580  0.9388E+00  0.1445E+02
  12.590  0.9423E+00  0.1446E+02
  12.600  0.9477E+00  0.1447E+02
  12.610  0.9551E+00  0.1448E+02
  12.620  0.9625E+00  0.1449E+02
  12.630  0.9699E+00  0.1450E+02
  12.640  0.9772E+00  0.1451E+02
  12.650  0.9845E+00  0.1452E+02
  12.660  0.9917E+00  0.1453E+02
  12.670  0.9990E+00  0.1454E+02
  12.680  0.1006E+01  0.1455E+02
  12.690  0.1014E+01  0.1456E+02
  12.700  0.1021E+01  0.1457E+02
  12.710  0.1029E+01  0.1458E+02
  12.720  0.1036E+01  0.1459E+02
  12.730  0.1043E+01  0.1460E+02
  12.740  0.1050E+01  0.1461E+02
  12.750  0.1056E+01  0.1462E+02
  12.760  0.1062E+01  0.1463E+02
  12.770  0.1067E+01  0.1464E+02
  12.780  0.1073E+01  0.1466E+02
  12.790  0.1077E+01  0.1467E+02
  12.800  0.1082E+01  0.1468E+02
  12.810  0.1087E+01  0.1469E+02
  12.820  0.1094E+01  0.1470E+02
  12.830  0.1102E+01  0.1471E+02
  12.840  0.1110E+01  0.1472E+02
  12.850  0.1119E+01  0.1473E+02
  12.860  0.1128E+01  0.1474E+02
  12.870  0.1138E+01  0.1475E+02
  12.880  0.1150E+01  0.1477E+02
  12.890  0.1160E+01  0.1478E+02
  12.900  0.1169E+01  0.1479E+02
  12.910  0.1179E+01  0.1480E+02
  12.920  0.1190E+01  0.1481E+02
  12.930  0.1199E+01  0.1482E+02
  12.940  0.1207E+01  0.1484E+02
  12.950  0.1209E+01  0.1485E+02
  12.960  0.1207E+01  0.1486E+02
  12.970  0.1200E+01  0.1487E+02
  12.980  0.1191E+01  0.1488E+02
  12.990  0.1178E+01  0.1490E+02
  13.000  0.1164E+01  0.1491E+02
  13.010  0.1147E+01  0.1492E+02
  13.020  0.1128E+01  0.1493E+02
  13.030  0.1107E+01  0.1494E+02
  13.040  0.1090E+01  0.1495E+02
  13.050  0.1077E+01  0.1496E+02
  13.060  0.1065E+01  0.1498E+02
  13.070  0.1055E+01  0.1499E+02
  13.080  0.1047E+01  0.1500E+02
  13.090  0.1045E+01  0.1501E+02
  13.100  0.1049E+01  0.1502E+02
  13.110  0.1051E+01  0.1503E+02
  13.120  0.1037E+01  0.1504E+02
  13.130  0.1024E+01  0.1505E+02
  13.140  0.1011E+01  0.1506E+02
  13.150  0.9992E+00  0.1507E+02
  13.160  0.9875E+00  0.1508E+02
  13.170  0.9763E+00  0.1509E+02
  13.180  0.9657E+00  0.1510E+02
  13.190  0.9557E+00  0.1511E+02
  13.200  0.9465E+00  0.1512E+02
  13.210  0.9381E+00  0.1513E+02
  13.220  0.9306E+00  0.1514E+02
  13.230  0.9238E+00  0.1515E+02
  13.240  0.9173E+00  0.1515E+02
  13.250  0.9111E+00  0.1516E+02
  13.260  0.9053E+00  0.1517E+02
  13.270  0.8998E+00  0.1518E+02
  13.280  0.8946E+00  0.1519E+02
  13.290  0.8899E+00  0.1520E+02
  13.300  0.8855E+00  0.1521E+02
  13.310  0.8840E+00  0.1522E+02
  13.320  0.8826E+00  0.1523E+02
  13.330  0.8806E+00  0.1523E+02
  13.340  0.8779E+00  0.1524E+02
  13.350  0.8746E+00  0.1525E+02
  13.360  0.8707E+00  0.1526E+02
  13.370  0.8662E+00  0.1527E+02
  13.380  0.8610E+00  0.1528E+02
  13.390  0.8552E+00  0.1529E+02
  13.400  0.8488E+00  0.1530E+02
  13.410  0.8418E+00  0.1530E+02
  13.420  0.8341E+00  0.1531E+02
  13.430  0.8258E+00  0.1532E+02
  13.440  0.8169E+00  0.1533E+02
  13.450  0.8072E+00  0.1534E+02
  13.460  0.7972E+00  0.1535E+02
  13.470  0.7872E+00  0.1535E+02
  13.480  0.7769E+00  0.1536E+02
  13.490  0.7665E+00  0.1537E+02
  13.500  0.7554E+00  0.1538E+02
  13.510  0.7443E+00  0.1538E+02
  13.520  0.7336E+00  0.1539E+02
  13.530  0.7233E+00  0.1540E+02
  13.540  0.7133E+00  0.1541E+02
  13.550  0.7038E+00  0.1541E+02
  13.560  0.6948E+00  0.1542E+02
  13.570  0.6861E+00  0.1543E+02
  13.580  0.6779E+00  0.1543E+02
  13.590  0.6700E+00  0.1544E+02
  13.600  0.6625E+00  0.1545E+02
  13.610  0.6554E+00  0.1545E+02
  13.620  0.6491E+00  0.1546E+02
  13.630  0.6439E+00  0.1547E+02
  13.640  0.6387E+00  0.1547E+02
  13.650  0.6330E+00  0.1548E+02
  13.660  0.6274E+00  0.1549E+02
  13.670  0.6218E+00  0.1549E+02
  13.680  0.6164E+00  0.1550E+02
  13.690  0.6111E+00  0.1550E+02
  13.700  0.6060E+00  0.1551E+02
  13.710  0.6021E+00  0.1552E+02
  13.720  0.5988E+00  0.1552E+02
  13.730  0.5958E+00  0.1553E+02
  13.740  0.5929E+00  0.1553E+02
  13.750  0.5899E+00  0.1554E+02
  13.760  0.5871E+00  0.1555E+02
  13.770  0.5844E+00  0.1555E+02
  13.780  0.5819E+00  0.1556E+02
  13.790  0.5798E+00  0.1556E+02
  13.800  0.5778E+00  0.1557E+02
  13.810  0.5749E+00  0.1557E+02
  13.820  0.5696E+00  0.1558E+02
  13.830  0.5643E+00  0.1559E+02
  13.840  0.5591E+00  0.1559E+02
  13.850  0.5540E+00  0.1560E+02
  13.860  0.5490E+00  0.1560E+02
  13.870  0.5440E+00  0.1561E+02
  13.880  0.5392E+00  0.1561E+02
  13.890  0.5344E+00  0.1562E+02
  13.900  0.5296E+00  0.1562E+02
  13.910  0.5250E+00  0.1563E+02
  13.920  0.5205E+00  0.1563E+02
  13.930  0.5162E+00  0.1564E+02
  13.940  0.5120E+00  0.1565E+02
  13.950  0.5091E+00  0.1565E+02
  13.960  0.5064E+00  0.1566E+02
  13.970  0.5034E+00  0.1566E+02
  13.980  0.5001E+00  0.1567E+02
  13.990  0.4966E+00  0.1567E+02
  14.000  0.4929E+00  0.1568E+02
  14.010  0.4891E+00  0.1568E+02
  14.020  0.4853E+00  0.1569E+02
  14.030  0.4816E+00  0.1569E+02
  14.040  0.4779E+00  0.1569E+02
  14.050  0.4743E+00  0.1570E+02
  14.060  0.4706E+00  0.1570E+02
  14.070  0.4673E+00  0.1571E+02
  14.080  0.4679E+00  0.1571E+02
  14.090  0.4736E+00  0.1572E+02
  14.100  0.4844E+00  0.1572E+02
  14.110  0.4828E+00  0.1573E+02
  14.120  0.4746E+00  0.1573E+02
  14.130  0.4692E+00  0.1574E+02
  14.140  0.4659E+00  0.1574E+02
  14.150  0.4621E+00  0.1575E+02
  14.160  0.4578E+00  0.1575E+02
  14.170  0.4530E+00  0.1576E+02
  14.180  0.3881E+00  0.1576E+02
  14.190  0.3764E+00  0.1576E+02
  14.200  0.3651E+00  0.1577E+02
  14.210  0.3541E+00  0.1577E+02
  14.220  0.3434E+00  0.1577E+02
  14.230  0.3330E+00  0.1578E+02
  14.240  0.3230E+00  0.1578E+02
  14.250  0.3132E+00  0.1578E+02
  14.260  0.3046E+00  0.1579E+02
  14.270  0.3003E+00  0.1579E+02
  14.280  0.2974E+00  0.1579E+02
  14.290  0.2827E+00  0.1580E+02
  14.300  0.2801E+00  0.1580E+02
  14.310  0.2776E+00  0.1580E+02
  14.320  0.2752E+00  0.1581E+02
  14.330  0.2728E+00  0.1581E+02
  14.340  0.2704E+00  0.1581E+02
  14.350  0.2682E+00  0.1581E+02
  14.360  0.2660E+00  0.1582E+02
  14.370  0.2639E+00  0.1582E+02
  14.380  0.2618E+00  0.1582E+02
  14.390  0.2598E+00  0.1582E+02
  14.400  0.2579E+00  0.1583E+02
  14.410  0.2560E+00  0.1583E+02
  14.420  0.2542E+00  0.1583E+02
  14.430  0.2525E+00  0.1583E+02
  14.440  0.2508E+00  0.1584E+02
  14.450  0.2495E+00  0.1584E+02
  14.460  0.2496E+00  0.1584E+02
  14.470  0.2509E+00  0.1584E+02
  14.480  0.2537E+00  0.1585E+02
  14.490  0.2578E+00  0.1585E+02
  14.500  0.2633E+00  0.1585E+02
  14.510  0.2697E+00  0.1585E+02
  14.520  0.2762E+00  0.1586E+02
  14.530  0.2754E+00  0.1586E+02
  14.540  0.2505E+00  0.1586E+02
  14.550  0.2353E+00  0.1587E+02
  14.560  0.2254E+00  0.1587E+02
  14.570  0.2166E+00  0.1587E+02
  14.580  0.2091E+00  0.1587E+02
  14.590  0.2028E+00  0.1587E+02
  14.600  0.1977E+00  0.1588E+02
  14.610  0.1930E+00  0.1588E+02
  14.620  0.1886E+00  0.1588E+02
  14.630  0.1845E+00  0.1588E+02
  14.640  0.1806E+00  0.1588E+02
  14.650  0.1771E+00  0.1589E+02
  14.660  0.1738E+00  0.1589E+02
  14.670  0.1708E+00  0.1589E+02
  14.680  0.1681E+00  0.1589E+02
  14.690  0.1656E+00  0.1589E+02
  14.700  0.1634E+00  0.1589E+02
  14.710  0.1614E+00  0.1590E+02
  14.720  0.1593E+00  0.1590E+02
  14.730  0.1573E+00  0.1590E+02
  14.740  0.1554E+00  0.1590E+02
  14.750  0.1535E+00  0.1590E+02
  14.760  0.1516E+00  0.1590E+02
  14.770  0.1497E+00  0.1590E+02
  14.780  0.1479E+00  0.1591E+02
  14.790  0.1461E+00  0.1591E+02
  14.800  0.1443E+00  0.1591E+02
  14.810  0.1426E+00  0.1591E+02
  14.820  0.1409E+00  0.1591E+02
  14.830  0.1393E+00  0.1591E+02
  14.840  0.1377E+00  0.1591E+02
  14.850  0.1361E+00  0.1592E+02
  14.860  0.1345E+00  0.1592E+02
  14.870  0.1330E+00  0.1592E+02
  14.880  0.1315E+00  0.1592E+02
  14.890  0.1301E+00  0.1592E+02
  14.900  0.1287E+00  0.1592E+02
  14.910  0.1273E+00  0.1592E+02
  14.920  0.1260E+00  0.1593E+02
  14.930  0.1247E+00  0.1593E+02
  14.940  0.1234E+00  0.1593E+02
  14.950  0.1221E+00  0.1593E+02
  14.960  0.1209E+00  0.1593E+02
  14.970  0.1198E+00  0.1593E+02
  14.980  0.1186E+00  0.1593E+02
  14.990  0.1175E+00  0.1593E+02
  15.000  0.1165E+00  0.1593E+02
  15.010  0.1155E+00  0.1594E+02
  15.020  0.1147E+00  0.1594E+02
  15.030  0.1139E+00  0.1594E+02
  15.040  0.1131E+00  0.1594E+02
  15.050  0.1122E+00  0.1594E+02
  15.060  0.1114E+00  0.1594E+02
  15.070  0.1106E+00  0.1594E+02
  15.080  0.1097E+00  0.1594E+02
  15.090  0.1089E+00  0.1595E+02
  15.100  0.1081E+00  0.1595E+02
  15.110  0.1072E+00  0.1595E+02
  15.120  0.1064E+00  0.1595E+02
  15.130  0.1055E+00  0.1595E+02
  15.140  0.1046E+00  0.1595E+02
  15.150  0.1038E+00  0.1595E+02
  15.160  0.1029E+00  0.1595E+02
  15.170  0.1020E+00  0.1595E+02
  15.180  0.1011E+00  0.1595E+02
  15.190  0.1002E+00  0.1596E+02
  15.200  0.9932E-01  0.1596E+02
  15.210  0.9840E-01  0.1596E+02
  15.220  0.9747E-01  0.1596E+02
  15.230  0.9653E-01  0.1596E+02
  15.240  0.9558E-01  0.1596E+02
  15.250  0.9462E-01  0.1596E+02
  15.260  0.9365E-01  0.1596E+02
  15.270  0.9267E-01  0.1596E+02
  15.280  0.9168E-01  0.1596E+02
  15.290  0.1461E+00  0.1597E+02
  15.300  0.1171E+00  0.1597E+02
  15.310  0.9243E-01  0.1597E+02
  15.320  0.9051E-01  0.1597E+02
  15.330  0.8845E-01  0.1597E+02
  15.340  0.8663E-01  0.1597E+02
  15.350  0.8493E-01  0.1597E+02
  15.360  0.8330E-01  0.1597E+02
  15.370  0.8174E-01  0.1597E+02
  15.380  0.8025E-01  0.1597E+02
  15.390  0.7883E-01  0.1597E+02
  15.400  0.7747E-01  0.1598E+02
  15.410  0.7612E-01  0.1598E+02
  15.420  0.7477E-01  0.1598E+02
  15.430  0.7343E-01  0.1598E+02
  15.440  0.7210E-01  0.1598E+02
  15.450  0.7077E-01  0.1598E+02
  15.460  0.6945E-01  0.1598E+02
  15.470  0.6814E-01  0.1598E+02
  15.480  0.6683E-01  0.1598E+02
  15.490  0.6553E-01  0.1598E+02
  15.500  0.6424E-01  0.1598E+02
  15.510  0.6295E-01  0.1598E+02
  15.520  0.6167E-01  0.1598E+02
  15.530  0.6039E-01  0.1598E+02
  15.540  0.5913E-01  0.1599E+02
  15.550  0.5786E-01  0.1599E+02
  15.560  0.5661E-01  0.1599E+02
  15.570  0.5536E-01  0.1599E+02
  15.580  0.5412E-01  0.1599E+02
  15.590  0.5288E-01  0.1599E+02
  15.600  0.5165E-01  0.1599E+02
  15.610  0.5042E-01  0.1599E+02
  15.620  0.4921E-01  0.1599E+02
  15.630  0.4800E-01  0.1599E+02
  15.640  0.4679E-01  0.1599E+02
  15.650  0.4559E-01  0.1599E+02
  15.660  0.4440E-01  0.1599E+02
  15.670  0.4322E-01  0.1599E+02
  15.680  0.4204E-01  0.1599E+02
  15.690  0.4087E-01  0.1599E+02
  15.700  0.3970E-01  0.1599E+02
  15.710  0.3854E-01  0.1599E+02
  15.720  0.3739E-01  0.1599E+02
  15.730  0.3624E-01  0.1599E+02
  15.740  0.3510E-01  0.1599E+02
  15.750  0.3397E-01  0.1599E+02
  15.760  0.3284E-01  0.1600E+02
  15.770  0.3172E-01  0.1600E+02
  15.780  0.3060E-01  0.1600E+02
  15.790  0.2949E-01  0.1600E+02
  15.800  0.2839E-01  0.1600E+02
  15.810  0.2730E-01  0.1600E+02
  15.820  0.2621E-01  0.1600E+02
  15.830  0.2512E-01  0.1600E+02
  15.840  0.2405E-01  0.1600E+02
  15.850  0.2298E-01  0.1600E+02
  15.860  0.2804E-01  0.1600E+02
  15.870  0.2544E-01  0.1600E+02
  15.880  0.2297E-01  0.1600E+02
  15.890  0.2063E-01  0.1600E+02
  15.900  0.1841E-01  0.1600E+02
  15.910  0.1632E-01  0.1600E+02
  15.920  0.1435E-01  0.1600E+02
  15.930  0.1252E-01  0.1600E+02
  15.940  0.1081E-01  0.1600E+02
  15.950  0.9223E-02  0.1600E+02
  15.960  0.7768E-02  0.1600E+02
  15.970  0.6439E-02  0.1600E+02
  15.980  0.5238E-02  0.1600E+02
  15.990  0.4164E-02  0.1600E+02
  16.000  0.3217E-02  0.1600E+02
